#FORMAT	     : EMSA/MAS Spectral Data File
#VERSION     : 1.0
#TITLE       : SM315 227eV 15x0,5s
#DATE        : 
#TIME        : 
#OWNER       : Michael Entrup
#NPOINTS     : 2048
#NCOLUMNS    : 1
#XUNITS      : eV
#YUNITS      : e-
#DATATYPE    : XY
#XPERCHAN    : 3.892060e-002
#OFFSET      : 1.871453e+002
#SIGNALTYPE  : ELS
#BEAMKV      : 200000.000000
#MAGCAM      : 125000.000000
#EMISSION    : 0.000000
#PROBECUR    : 0.000000
#BEAMDIAM    : 0.000000
#SPECTRUM    : Spectral Data Starts Here
1.871453e+002, 9.723467e+004
1.871842e+002, 9.723467e+004
1.872231e+002, 9.723467e+004
1.872621e+002, 9.723467e+004
1.873010e+002, 9.723467e+004
1.873399e+002, 9.723467e+004
1.873788e+002, 9.772635e+004
1.874177e+002, 9.687338e+004
1.874567e+002, 9.781935e+004
1.874956e+002, 9.811706e+004
1.875345e+002, 9.760941e+004
1.875734e+002, 9.721573e+004
1.876123e+002, 9.805430e+004
1.876513e+002, 9.769086e+004
1.876902e+002, 9.761721e+004
1.877291e+002, 9.645080e+004
1.877680e+002, 9.743038e+004
1.878069e+002, 9.772366e+004
1.878459e+002, 9.674261e+004
1.878848e+002, 9.614194e+004
1.879237e+002, 9.673025e+004
1.879626e+002, 9.750068e+004
1.880015e+002, 9.662231e+004
1.880405e+002, 9.630470e+004
1.880794e+002, 9.738710e+004
1.881183e+002, 9.767231e+004
1.881572e+002, 9.699220e+004
1.881962e+002, 9.639960e+004
1.882351e+002, 9.624624e+004
1.882740e+002, 9.577030e+004
1.883129e+002, 9.602285e+004
1.883518e+002, 9.541827e+004
1.883907e+002, 9.576385e+004
1.884297e+002, 9.570241e+004
1.884686e+002, 9.540564e+004
1.885075e+002, 9.521895e+004
1.885464e+002, 9.531520e+004
1.885854e+002, 9.540672e+004
1.886243e+002, 9.523508e+004
1.886632e+002, 9.522231e+004
1.887021e+002, 9.565202e+004
1.887410e+002, 9.528978e+004
1.887800e+002, 9.537151e+004
1.888189e+002, 9.527191e+004
1.888578e+002, 9.493979e+004
1.888967e+002, 9.450108e+004
1.889356e+002, 9.454865e+004
1.889746e+002, 9.481721e+004
1.890135e+002, 9.572553e+004
1.890524e+002, 9.531639e+004
1.890913e+002, 9.496882e+004
1.891302e+002, 9.475511e+004
1.891692e+002, 9.505390e+004
1.892081e+002, 9.472702e+004
1.892470e+002, 9.499947e+004
1.892859e+002, 9.448684e+004
1.893248e+002, 9.422580e+004
1.893638e+002, 9.458575e+004
1.894027e+002, 9.442111e+004
1.894416e+002, 9.437271e+004
1.894805e+002, 9.395592e+004
1.895195e+002, 9.419516e+004
1.895584e+002, 9.464234e+004
1.895973e+002, 9.448737e+004
1.896362e+002, 9.320981e+004
1.896751e+002, 9.353400e+004
1.897141e+002, 9.386291e+004
1.897530e+002, 9.398656e+004
1.897919e+002, 9.386048e+004
1.898308e+002, 9.361747e+004
1.898697e+002, 9.362271e+004
1.899087e+002, 9.325793e+004
1.899476e+002, 9.355727e+004
1.899865e+002, 9.319423e+004
1.900254e+002, 9.308710e+004
1.900643e+002, 9.317150e+004
1.901033e+002, 9.307069e+004
1.901422e+002, 9.269100e+004
1.901811e+002, 9.318991e+004
1.902200e+002, 9.302702e+004
1.902589e+002, 9.238751e+004
1.902979e+002, 9.280014e+004
1.903368e+002, 9.247890e+004
1.903757e+002, 9.268616e+004
1.904146e+002, 9.281035e+004
1.904536e+002, 9.238818e+004
1.904925e+002, 9.297648e+004
1.905314e+002, 9.303710e+004
1.905703e+002, 9.258803e+004
1.906092e+002, 9.234798e+004
1.906481e+002, 9.182554e+004
1.906871e+002, 9.218186e+004
1.907260e+002, 9.174798e+004
1.907649e+002, 9.174906e+004
1.908038e+002, 9.224784e+004
1.908428e+002, 9.252648e+004
1.908817e+002, 9.196975e+004
1.909206e+002, 9.178616e+004
1.909595e+002, 9.171533e+004
1.909984e+002, 9.197688e+004
1.910374e+002, 9.179221e+004
1.910763e+002, 9.125523e+004
1.911152e+002, 9.168132e+004
1.911541e+002, 9.169986e+004
1.911930e+002, 9.184649e+004
1.912320e+002, 9.224221e+004
1.912709e+002, 9.181922e+004
1.913098e+002, 9.110900e+004
1.913487e+002, 9.133871e+004
1.913876e+002, 9.134544e+004
1.914266e+002, 9.134611e+004
1.914655e+002, 9.095686e+004
1.915044e+002, 9.080794e+004
1.915433e+002, 9.104651e+004
1.915822e+002, 9.117822e+004
1.916212e+002, 9.107178e+004
1.916601e+002, 9.042957e+004
1.916990e+002, 9.054717e+004
1.917379e+002, 9.034503e+004
1.917768e+002, 9.054920e+004
1.918158e+002, 9.046249e+004
1.918547e+002, 9.043683e+004
1.918936e+002, 9.034302e+004
1.919325e+002, 8.995538e+004
1.919715e+002, 8.961573e+004
1.920104e+002, 8.974664e+004
1.920493e+002, 8.973052e+004
1.920882e+002, 9.012352e+004
1.921271e+002, 9.034516e+004
1.921660e+002, 9.004477e+004
1.922050e+002, 8.972809e+004
1.922439e+002, 8.912325e+004
1.922828e+002, 8.954355e+004
1.923217e+002, 9.009355e+004
1.923607e+002, 9.004005e+004
1.923996e+002, 8.994127e+004
1.924385e+002, 9.002823e+004
1.924774e+002, 8.893279e+004
1.925163e+002, 8.912796e+004
1.925553e+002, 8.902998e+004
1.925942e+002, 8.897096e+004
1.926331e+002, 8.940686e+004
1.926720e+002, 8.895001e+004
1.927109e+002, 8.950673e+004
1.927499e+002, 8.969032e+004
1.927888e+002, 8.962702e+004
1.928277e+002, 8.906102e+004
1.928666e+002, 8.896639e+004
1.929055e+002, 8.868427e+004
1.929445e+002, 8.794960e+004
1.929834e+002, 8.806505e+004
1.930223e+002, 8.841318e+004
1.930612e+002, 8.883656e+004
1.931001e+002, 8.931680e+004
1.931391e+002, 8.859704e+004
1.931780e+002, 8.877218e+004
1.932169e+002, 8.846491e+004
1.932558e+002, 8.859758e+004
1.932948e+002, 8.825444e+004
1.933337e+002, 8.877834e+004
1.933726e+002, 8.866948e+004
1.934115e+002, 8.851895e+004
1.934504e+002, 8.847581e+004
1.934893e+002, 8.786990e+004
1.935283e+002, 8.771706e+004
1.935672e+002, 8.797688e+004
1.936061e+002, 8.769140e+004
1.936450e+002, 8.802366e+004
1.936840e+002, 8.763803e+004
1.937229e+002, 8.798964e+004
1.937618e+002, 8.787339e+004
1.938007e+002, 8.793616e+004
1.938396e+002, 8.786290e+004
1.938786e+002, 8.751076e+004
1.939175e+002, 8.739838e+004
1.939564e+002, 8.726491e+004
1.939953e+002, 8.751747e+004
1.940342e+002, 8.662500e+004
1.940732e+002, 8.682151e+004
1.941121e+002, 8.708359e+004
1.941510e+002, 8.688831e+004
1.941899e+002, 8.697850e+004
1.942289e+002, 8.695456e+004
1.942678e+002, 8.663884e+004
1.943067e+002, 8.671076e+004
1.943456e+002, 8.661505e+004
1.943845e+002, 8.692272e+004
1.944234e+002, 8.645283e+004
1.944624e+002, 8.672352e+004
1.945013e+002, 8.719623e+004
1.945402e+002, 8.693292e+004
1.945791e+002, 8.639261e+004
1.946181e+002, 8.620632e+004
1.946570e+002, 8.625309e+004
1.946959e+002, 8.625820e+004
1.947348e+002, 8.632029e+004
1.947737e+002, 8.614408e+004
1.948127e+002, 8.604973e+004
1.948516e+002, 8.556868e+004
1.948905e+002, 8.569489e+004
1.949294e+002, 8.594248e+004
1.949683e+002, 8.584409e+004
1.950073e+002, 8.624436e+004
1.950462e+002, 8.600496e+004
1.950851e+002, 8.620806e+004
1.951240e+002, 8.532380e+004
1.951629e+002, 8.521748e+004
1.952019e+002, 8.543576e+004
1.952408e+002, 8.544448e+004
1.952797e+002, 8.508252e+004
1.953186e+002, 8.491412e+004
1.953575e+002, 8.495389e+004
1.953965e+002, 8.466155e+004
1.954354e+002, 8.491533e+004
1.954743e+002, 8.483870e+004
1.955132e+002, 8.540631e+004
1.955521e+002, 8.510968e+004
1.955911e+002, 8.478924e+004
1.956300e+002, 8.476948e+004
1.956689e+002, 8.489490e+004
1.957078e+002, 8.507002e+004
1.957467e+002, 8.432339e+004
1.957857e+002, 8.454542e+004
1.958246e+002, 8.471949e+004
1.958635e+002, 8.460229e+004
1.959024e+002, 8.430833e+004
1.959413e+002, 8.367607e+004
1.959803e+002, 8.434986e+004
1.960192e+002, 8.413872e+004
1.960581e+002, 8.440888e+004
1.960970e+002, 8.445577e+004
1.961360e+002, 8.366962e+004
1.961749e+002, 8.412123e+004
1.962138e+002, 8.364677e+004
1.962527e+002, 8.381358e+004
1.962916e+002, 8.373428e+004
1.963306e+002, 8.454018e+004
1.963695e+002, 8.469247e+004
1.964084e+002, 8.410270e+004
1.964473e+002, 8.375645e+004
1.964862e+002, 8.420954e+004
1.965252e+002, 8.416936e+004
1.965641e+002, 8.415820e+004
1.966030e+002, 8.342365e+004
1.966419e+002, 8.312446e+004
1.966808e+002, 8.309530e+004
1.967198e+002, 8.288911e+004
1.967587e+002, 8.327943e+004
1.967976e+002, 8.355108e+004
1.968365e+002, 8.366962e+004
1.968754e+002, 8.357903e+004
1.969144e+002, 8.322044e+004
1.969533e+002, 8.325120e+004
1.969922e+002, 8.289194e+004
1.970311e+002, 8.324717e+004
1.970701e+002, 8.374651e+004
1.971090e+002, 8.326559e+004
1.971479e+002, 8.282191e+004
1.971868e+002, 8.323521e+004
1.972257e+002, 8.344784e+004
1.972646e+002, 8.338333e+004
1.973036e+002, 8.330430e+004
1.973425e+002, 8.267218e+004
1.973814e+002, 8.291330e+004
1.974203e+002, 8.292258e+004
1.974593e+002, 8.202930e+004
1.974982e+002, 8.245632e+004
1.975371e+002, 8.271155e+004
1.975760e+002, 8.244798e+004
1.976149e+002, 8.169409e+004
1.976539e+002, 8.196357e+004
1.976928e+002, 8.231613e+004
1.977317e+002, 8.165174e+004
1.977706e+002, 8.208185e+004
1.978095e+002, 8.243978e+004
1.978485e+002, 8.200376e+004
1.978874e+002, 8.161156e+004
1.979263e+002, 8.175766e+004
1.979652e+002, 8.181559e+004
1.980042e+002, 8.151680e+004
1.980431e+002, 8.147432e+004
1.980820e+002, 8.138266e+004
1.981209e+002, 8.172070e+004
1.981598e+002, 8.182889e+004
1.981987e+002, 8.119072e+004
1.982377e+002, 8.110268e+004
1.982766e+002, 8.092030e+004
1.983155e+002, 8.096169e+004
1.983544e+002, 8.113118e+004
1.983933e+002, 8.129583e+004
1.984323e+002, 8.128616e+004
1.984712e+002, 8.122634e+004
1.985101e+002, 8.104302e+004
1.985490e+002, 8.082889e+004
1.985880e+002, 8.170725e+004
1.986269e+002, 8.081182e+004
1.986658e+002, 8.018185e+004
1.987047e+002, 8.049651e+004
1.987436e+002, 8.038065e+004
1.987826e+002, 8.087876e+004
1.988215e+002, 8.102594e+004
1.988604e+002, 8.100565e+004
1.988993e+002, 8.065766e+004
1.989382e+002, 8.051343e+004
1.989772e+002, 7.982432e+004
1.990161e+002, 7.999288e+004
1.990550e+002, 7.976572e+004
1.990939e+002, 8.038428e+004
1.991328e+002, 7.978038e+004
1.991718e+002, 7.972419e+004
1.992107e+002, 7.946156e+004
1.992496e+002, 7.969273e+004
1.992885e+002, 7.948548e+004
1.993274e+002, 7.979193e+004
1.993664e+002, 8.037916e+004
1.994053e+002, 7.971008e+004
1.994442e+002, 7.928064e+004
1.994831e+002, 7.948804e+004
1.995220e+002, 7.946075e+004
1.995610e+002, 7.906533e+004
1.995999e+002, 7.986760e+004
1.996388e+002, 7.975215e+004
1.996777e+002, 7.997823e+004
1.997166e+002, 7.914100e+004
1.997556e+002, 7.955927e+004
1.997945e+002, 7.935591e+004
1.998334e+002, 7.896545e+004
1.998723e+002, 7.879260e+004
1.999113e+002, 7.911075e+004
1.999502e+002, 7.973629e+004
1.999891e+002, 7.895820e+004
2.000280e+002, 7.833306e+004
2.000669e+002, 7.799906e+004
2.001059e+002, 7.880080e+004
2.001448e+002, 7.869073e+004
2.001837e+002, 7.902822e+004
2.002226e+002, 7.865887e+004
2.002615e+002, 7.795752e+004
2.003005e+002, 7.838091e+004
2.003394e+002, 7.836559e+004
2.003783e+002, 7.860551e+004
2.004172e+002, 7.853616e+004
2.004561e+002, 7.876063e+004
2.004951e+002, 7.850941e+004
2.005340e+002, 7.824583e+004
2.005729e+002, 7.859556e+004
2.006118e+002, 7.817513e+004
2.006507e+002, 7.829220e+004
2.006897e+002, 7.824691e+004
2.007286e+002, 7.814920e+004
2.007675e+002, 7.795270e+004
2.008064e+002, 7.833240e+004
2.008454e+002, 7.853387e+004
2.008843e+002, 7.760309e+004
2.009232e+002, 7.820335e+004
2.009621e+002, 7.807271e+004
2.010010e+002, 7.790685e+004
2.010399e+002, 7.807298e+004
2.010789e+002, 7.819852e+004
2.011178e+002, 7.772702e+004
2.011567e+002, 7.741478e+004
2.011956e+002, 7.793226e+004
2.012346e+002, 7.745094e+004
2.012735e+002, 7.760551e+004
2.013124e+002, 7.730134e+004
2.013513e+002, 7.721304e+004
2.013902e+002, 7.693548e+004
2.014292e+002, 7.676344e+004
2.014681e+002, 7.708413e+004
2.015070e+002, 7.704529e+004
2.015459e+002, 7.725283e+004
2.015848e+002, 7.723844e+004
2.016238e+002, 7.711990e+004
2.016627e+002, 7.707138e+004
2.017016e+002, 7.678346e+004
2.017405e+002, 7.687984e+004
2.017794e+002, 7.685148e+004
2.018184e+002, 7.652674e+004
2.018573e+002, 7.677216e+004
2.018962e+002, 7.633306e+004
2.019351e+002, 7.635188e+004
2.019740e+002, 7.636290e+004
2.020130e+002, 7.643320e+004
2.020519e+002, 7.659273e+004
2.020908e+002, 7.655201e+004
2.021297e+002, 7.635456e+004
2.021686e+002, 7.620927e+004
2.022076e+002, 7.610241e+004
2.022465e+002, 7.621801e+004
2.022854e+002, 7.616882e+004
2.023243e+002, 7.613575e+004
2.023633e+002, 7.574663e+004
2.024022e+002, 7.602701e+004
2.024411e+002, 7.630107e+004
2.024800e+002, 7.641868e+004
2.025189e+002, 7.625322e+004
2.025579e+002, 7.592191e+004
2.025968e+002, 7.628548e+004
2.026357e+002, 7.668736e+004
2.026746e+002, 7.615833e+004
2.027135e+002, 7.607943e+004
2.027525e+002, 7.576048e+004
2.027914e+002, 7.571411e+004
2.028303e+002, 7.572675e+004
2.028692e+002, 7.552419e+004
2.029081e+002, 7.587809e+004
2.029471e+002, 7.544085e+004
2.029860e+002, 7.552674e+004
2.030249e+002, 7.545779e+004
2.030638e+002, 7.519838e+004
2.031027e+002, 7.529973e+004
2.031417e+002, 7.541249e+004
2.031806e+002, 7.589771e+004
2.032195e+002, 7.559570e+004
2.032584e+002, 7.470363e+004
2.032973e+002, 7.511345e+004
2.033363e+002, 7.513091e+004
2.033752e+002, 7.565161e+004
2.034141e+002, 7.501182e+004
2.034530e+002, 7.501316e+004
2.034919e+002, 7.506680e+004
2.035309e+002, 7.472446e+004
2.035698e+002, 7.452029e+004
2.036087e+002, 7.495820e+004
2.036476e+002, 7.435603e+004
2.036866e+002, 7.337620e+004
2.037255e+002, 7.430349e+004
2.037644e+002, 7.451223e+004
2.038033e+002, 7.456330e+004
2.038422e+002, 7.494273e+004
2.038811e+002, 7.443306e+004
2.039201e+002, 7.446277e+004
2.039590e+002, 7.433911e+004
2.039979e+002, 7.455981e+004
2.040368e+002, 7.458938e+004
2.040758e+002, 7.453965e+004
2.041147e+002, 7.410591e+004
2.041536e+002, 7.385349e+004
2.041925e+002, 7.381249e+004
2.042314e+002, 7.328413e+004
2.042704e+002, 7.327634e+004
2.043093e+002, 7.365833e+004
2.043482e+002, 7.389449e+004
2.043871e+002, 7.369314e+004
2.044260e+002, 7.387904e+004
2.044650e+002, 7.360255e+004
2.045039e+002, 7.356465e+004
2.045428e+002, 7.372393e+004
2.045817e+002, 7.378642e+004
2.046207e+002, 7.348158e+004
2.046596e+002, 7.354596e+004
2.046985e+002, 7.381169e+004
2.047374e+002, 7.333010e+004
2.047763e+002, 7.300538e+004
2.048152e+002, 7.309395e+004
2.048542e+002, 7.317042e+004
2.048931e+002, 7.365134e+004
2.049320e+002, 7.317607e+004
2.049709e+002, 7.299919e+004
2.050099e+002, 7.330148e+004
2.050488e+002, 7.348130e+004
2.050877e+002, 7.351034e+004
2.051266e+002, 7.290631e+004
2.051655e+002, 7.278118e+004
2.052045e+002, 7.261316e+004
2.052434e+002, 7.305536e+004
2.052823e+002, 7.331021e+004
2.053212e+002, 7.305456e+004
2.053601e+002, 7.253185e+004
2.053991e+002, 7.238669e+004
2.054380e+002, 7.300941e+004
2.054769e+002, 7.251788e+004
2.055158e+002, 7.237393e+004
2.055547e+002, 7.252660e+004
2.055937e+002, 7.258427e+004
2.056326e+002, 7.224973e+004
2.056715e+002, 7.240080e+004
2.057104e+002, 7.279784e+004
2.057493e+002, 7.284798e+004
2.057883e+002, 7.272338e+004
2.058272e+002, 7.239166e+004
2.058661e+002, 7.209099e+004
2.059050e+002, 7.196572e+004
2.059439e+002, 7.230349e+004
2.059829e+002, 7.188991e+004
2.060218e+002, 7.150148e+004
2.060607e+002, 7.197943e+004
2.060996e+002, 7.143077e+004
2.061385e+002, 7.178588e+004
2.061775e+002, 7.162553e+004
2.062164e+002, 7.202311e+004
2.062553e+002, 7.152003e+004
2.062942e+002, 7.170349e+004
2.063331e+002, 7.119650e+004
2.063721e+002, 7.140148e+004
2.064110e+002, 7.161881e+004
2.064499e+002, 7.132056e+004
2.064888e+002, 7.138172e+004
2.065278e+002, 7.102607e+004
2.065667e+002, 7.118051e+004
2.066056e+002, 7.106747e+004
2.066445e+002, 7.146841e+004
2.066834e+002, 7.158333e+004
2.067224e+002, 7.162553e+004
2.067613e+002, 7.085591e+004
2.068002e+002, 7.070201e+004
2.068391e+002, 7.131344e+004
2.068780e+002, 7.145739e+004
2.069170e+002, 7.059959e+004
2.069559e+002, 7.011209e+004
2.069948e+002, 7.036344e+004
2.070337e+002, 7.043494e+004
2.070726e+002, 7.107795e+004
2.071116e+002, 7.097123e+004
2.071505e+002, 7.087446e+004
2.071894e+002, 7.003441e+004
2.072283e+002, 7.059045e+004
2.072672e+002, 7.070363e+004
2.073062e+002, 7.065309e+004
2.073451e+002, 7.049919e+004
2.073840e+002, 7.037877e+004
2.074229e+002, 6.999261e+004
2.074619e+002, 7.022702e+004
2.075008e+002, 7.022742e+004
2.075397e+002, 7.053292e+004
2.075786e+002, 7.042271e+004
2.076175e+002, 7.051048e+004
2.076564e+002, 7.031129e+004
2.076954e+002, 7.015430e+004
2.077343e+002, 6.956196e+004
2.077732e+002, 7.008656e+004
2.078121e+002, 7.012930e+004
2.078511e+002, 7.007877e+004
2.078900e+002, 6.979046e+004
2.079289e+002, 6.932795e+004
2.079678e+002, 6.971237e+004
2.080067e+002, 6.972311e+004
2.080457e+002, 6.943078e+004
2.080846e+002, 6.974623e+004
2.081235e+002, 6.975793e+004
2.081624e+002, 6.975564e+004
2.082013e+002, 6.984651e+004
2.082403e+002, 6.935013e+004
2.082792e+002, 6.950497e+004
2.083181e+002, 6.917218e+004
2.083570e+002, 6.927661e+004
2.083960e+002, 6.936491e+004
2.084349e+002, 6.934166e+004
2.084738e+002, 6.963213e+004
2.085127e+002, 6.927177e+004
2.085516e+002, 6.957917e+004
2.085905e+002, 6.955013e+004
2.086295e+002, 6.931747e+004
2.086684e+002, 6.942970e+004
2.087073e+002, 6.908266e+004
2.087462e+002, 6.900175e+004
2.087852e+002, 6.896962e+004
2.088241e+002, 6.906627e+004
2.088630e+002, 6.929919e+004
2.089019e+002, 6.948521e+004
2.089408e+002, 6.931304e+004
2.089798e+002, 6.864556e+004
2.090187e+002, 6.889852e+004
2.090576e+002, 6.832271e+004
2.090965e+002, 6.850013e+004
2.091354e+002, 6.843454e+004
2.091744e+002, 6.840941e+004
2.092133e+002, 6.822109e+004
2.092522e+002, 6.841814e+004
2.092911e+002, 6.848306e+004
2.093300e+002, 6.839811e+004
2.093690e+002, 6.778764e+004
2.094079e+002, 6.800000e+004
2.094468e+002, 6.796116e+004
2.094857e+002, 6.825014e+004
2.095246e+002, 6.842164e+004
2.095636e+002, 6.885066e+004
2.096025e+002, 6.845995e+004
2.096414e+002, 6.831599e+004
2.096803e+002, 6.860954e+004
2.097192e+002, 6.819301e+004
2.097582e+002, 6.780686e+004
2.097971e+002, 6.787809e+004
2.098360e+002, 6.778468e+004
2.098749e+002, 6.753563e+004
2.099138e+002, 6.784328e+004
2.099528e+002, 6.725901e+004
2.099917e+002, 6.723038e+004
2.100306e+002, 6.728696e+004
2.100695e+002, 6.770215e+004
2.101084e+002, 6.786008e+004
2.101474e+002, 6.791747e+004
2.101863e+002, 6.793710e+004
2.102252e+002, 6.800564e+004
2.102641e+002, 6.754677e+004
2.103031e+002, 6.753427e+004
2.103420e+002, 6.737338e+004
2.103809e+002, 6.739476e+004
2.104198e+002, 6.734745e+004
2.104587e+002, 6.721237e+004
2.104977e+002, 6.778132e+004
2.105366e+002, 6.727123e+004
2.105755e+002, 6.716330e+004
2.106144e+002, 6.702392e+004
2.106533e+002, 6.706734e+004
2.106923e+002, 6.710363e+004
2.107312e+002, 6.666653e+004
2.107701e+002, 6.714288e+004
2.108090e+002, 6.716586e+004
2.108479e+002, 6.726371e+004
2.108869e+002, 6.708024e+004
2.109258e+002, 6.707473e+004
2.109647e+002, 6.664436e+004
2.110036e+002, 6.632890e+004
2.110425e+002, 6.677997e+004
2.110815e+002, 6.687554e+004
2.111204e+002, 6.686411e+004
2.111593e+002, 6.608052e+004
2.111982e+002, 6.640054e+004
2.112372e+002, 6.670779e+004
2.112761e+002, 6.635659e+004
2.113150e+002, 6.631505e+004
2.113539e+002, 6.630269e+004
2.113928e+002, 6.599100e+004
2.114317e+002, 6.582621e+004
2.114707e+002, 6.633521e+004
2.115096e+002, 6.567366e+004
2.115485e+002, 6.581412e+004
2.115874e+002, 6.557662e+004
2.116264e+002, 6.593374e+004
2.116653e+002, 6.593481e+004
2.117042e+002, 6.647984e+004
2.117431e+002, 6.604288e+004
2.117820e+002, 6.604409e+004
2.118210e+002, 6.618374e+004
2.118599e+002, 6.619813e+004
2.118988e+002, 6.533696e+004
2.119377e+002, 6.559516e+004
2.119766e+002, 6.569623e+004
2.120156e+002, 6.538400e+004
2.120545e+002, 6.538051e+004
2.120934e+002, 6.605282e+004
2.121323e+002, 6.518965e+004
2.121712e+002, 6.513172e+004
2.122102e+002, 6.559947e+004
2.122491e+002, 6.542285e+004
2.122880e+002, 6.544288e+004
2.123269e+002, 6.507796e+004
2.123658e+002, 6.497635e+004
2.124048e+002, 6.538346e+004
2.124437e+002, 6.505390e+004
2.124826e+002, 6.560403e+004
2.125215e+002, 6.509516e+004
2.125605e+002, 6.489193e+004
2.125994e+002, 6.484395e+004
2.126383e+002, 6.494758e+004
2.126772e+002, 6.463643e+004
2.127161e+002, 6.493589e+004
2.127551e+002, 6.499301e+004
2.127940e+002, 6.470202e+004
2.128329e+002, 6.460645e+004
2.128718e+002, 6.448320e+004
2.129107e+002, 6.407607e+004
2.129496e+002, 6.484368e+004
2.129886e+002, 6.444959e+004
2.130275e+002, 6.438965e+004
2.130664e+002, 6.438535e+004
2.131053e+002, 6.483602e+004
2.131443e+002, 6.441788e+004
2.131832e+002, 6.478818e+004
2.132221e+002, 6.471357e+004
2.132610e+002, 6.471062e+004
2.132999e+002, 6.406573e+004
2.133389e+002, 6.417957e+004
2.133778e+002, 6.465726e+004
2.134167e+002, 6.421654e+004
2.134556e+002, 6.425108e+004
2.134945e+002, 6.451183e+004
2.135335e+002, 6.381976e+004
2.135724e+002, 6.386062e+004
2.136113e+002, 6.366532e+004
2.136502e+002, 6.382930e+004
2.136891e+002, 6.377822e+004
2.137281e+002, 6.422809e+004
2.137670e+002, 6.398885e+004
2.138059e+002, 6.389409e+004
2.138448e+002, 6.412392e+004
2.138837e+002, 6.415659e+004
2.139227e+002, 6.383522e+004
2.139616e+002, 6.344234e+004
2.140005e+002, 6.383428e+004
2.140394e+002, 6.376895e+004
2.140784e+002, 6.372433e+004
2.141173e+002, 6.375484e+004
2.141562e+002, 6.345551e+004
2.141951e+002, 6.255846e+004
2.142340e+002, 6.327877e+004
2.142729e+002, 6.357486e+004
2.143119e+002, 6.361411e+004
2.143508e+002, 6.344261e+004
2.143897e+002, 6.331438e+004
2.144286e+002, 6.284624e+004
2.144676e+002, 6.301559e+004
2.145065e+002, 6.303186e+004
2.145454e+002, 6.292257e+004
2.145843e+002, 6.290819e+004
2.146232e+002, 6.285041e+004
2.146622e+002, 6.291653e+004
2.147011e+002, 6.260779e+004
2.147400e+002, 6.238373e+004
2.147789e+002, 6.263763e+004
2.148178e+002, 6.284273e+004
2.148568e+002, 6.279973e+004
2.148957e+002, 6.274476e+004
2.149346e+002, 6.300995e+004
2.149735e+002, 6.287312e+004
2.150125e+002, 6.302822e+004
2.150514e+002, 6.301639e+004
2.150903e+002, 6.317150e+004
2.151292e+002, 6.270202e+004
2.151681e+002, 6.273656e+004
2.152070e+002, 6.278212e+004
2.152460e+002, 6.250026e+004
2.152849e+002, 6.295699e+004
2.153238e+002, 6.260699e+004
2.153627e+002, 6.233118e+004
2.154017e+002, 6.191949e+004
2.154406e+002, 6.239825e+004
2.154795e+002, 6.224583e+004
2.155184e+002, 6.167419e+004
2.155573e+002, 6.149422e+004
2.155963e+002, 6.187513e+004
2.156352e+002, 6.217903e+004
2.156741e+002, 6.202527e+004
2.157130e+002, 6.182056e+004
2.157519e+002, 6.181639e+004
2.157909e+002, 6.139234e+004
2.158298e+002, 6.134920e+004
2.158687e+002, 6.156519e+004
2.159076e+002, 6.126989e+004
2.159465e+002, 6.157607e+004
2.159855e+002, 6.177930e+004
2.160244e+002, 6.184516e+004
2.160633e+002, 6.145470e+004
2.161022e+002, 6.218172e+004
2.161411e+002, 6.199866e+004
2.161801e+002, 6.149596e+004
2.162190e+002, 6.132366e+004
2.162579e+002, 6.119852e+004
2.162968e+002, 6.156801e+004
2.163358e+002, 6.152285e+004
2.163747e+002, 6.130229e+004
2.164136e+002, 6.136008e+004
2.164525e+002, 6.105672e+004
2.164914e+002, 6.075471e+004
2.165303e+002, 6.072540e+004
2.165693e+002, 6.121384e+004
2.166082e+002, 6.143764e+004
2.166471e+002, 6.074220e+004
2.166860e+002, 6.052473e+004
2.167249e+002, 6.149785e+004
2.167639e+002, 6.152675e+004
2.168028e+002, 6.136331e+004
2.168417e+002, 6.146666e+004
2.168806e+002, 6.110564e+004
2.169196e+002, 6.110995e+004
2.169585e+002, 6.084543e+004
2.169974e+002, 6.085416e+004
2.170363e+002, 6.083857e+004
2.170752e+002, 6.049611e+004
2.171142e+002, 6.101989e+004
2.171531e+002, 6.078279e+004
2.171920e+002, 6.048629e+004
2.172309e+002, 6.067661e+004
2.172698e+002, 6.036505e+004
2.173088e+002, 6.027325e+004
2.173477e+002, 6.056989e+004
2.173866e+002, 6.007500e+004
2.174255e+002, 6.004395e+004
2.174644e+002, 6.066465e+004
2.175034e+002, 6.018266e+004
2.175423e+002, 5.988387e+004
2.175812e+002, 6.019596e+004
2.176201e+002, 6.044919e+004
2.176590e+002, 6.004180e+004
2.176980e+002, 6.058549e+004
2.177369e+002, 6.025820e+004
2.177758e+002, 6.058817e+004
2.178147e+002, 6.031035e+004
2.178537e+002, 6.033212e+004
2.178926e+002, 6.023616e+004
2.179315e+002, 5.969220e+004
2.179704e+002, 6.006250e+004
2.180093e+002, 5.993857e+004
2.180482e+002, 5.964059e+004
2.180872e+002, 5.963239e+004
2.181261e+002, 5.979569e+004
2.181650e+002, 5.929193e+004
2.182039e+002, 5.938495e+004
2.182429e+002, 5.982997e+004
2.182818e+002, 5.891693e+004
2.183207e+002, 5.576788e+004
2.183596e+002, 5.963858e+004
2.183985e+002, 5.923051e+004
2.184375e+002, 5.897285e+004
2.184764e+002, 5.987916e+004
2.185153e+002, 5.977177e+004
2.185542e+002, 5.926855e+004
2.185931e+002, 5.950618e+004
2.186321e+002, 5.904409e+004
2.186710e+002, 5.889247e+004
2.187099e+002, 5.903736e+004
2.187488e+002, 5.928145e+004
2.187878e+002, 5.952392e+004
2.188267e+002, 5.974126e+004
2.188656e+002, 5.935094e+004
2.189045e+002, 5.869435e+004
2.189434e+002, 5.903979e+004
2.189823e+002, 5.860403e+004
2.190213e+002, 5.895404e+004
2.190602e+002, 5.888400e+004
2.190991e+002, 5.919395e+004
2.191380e+002, 5.889731e+004
2.191770e+002, 5.885094e+004
2.192159e+002, 5.882137e+004
2.192548e+002, 5.874892e+004
2.192937e+002, 5.891048e+004
2.193326e+002, 5.900377e+004
2.193716e+002, 5.925430e+004
2.194105e+002, 5.905511e+004
2.194494e+002, 5.884180e+004
2.194883e+002, 5.844113e+004
2.195272e+002, 5.870027e+004
2.195662e+002, 5.844166e+004
2.196051e+002, 5.847876e+004
2.196440e+002, 5.816841e+004
2.196829e+002, 5.878871e+004
2.197218e+002, 5.873105e+004
2.197608e+002, 5.859328e+004
2.197997e+002, 5.880497e+004
2.198386e+002, 5.862339e+004
2.198775e+002, 5.834462e+004
2.199164e+002, 5.810013e+004
2.199554e+002, 5.800806e+004
2.199943e+002, 5.801250e+004
2.200332e+002, 5.831479e+004
2.200721e+002, 5.852675e+004
2.201111e+002, 5.848400e+004
2.201500e+002, 5.848481e+004
2.201889e+002, 5.819502e+004
2.202278e+002, 5.837137e+004
2.202667e+002, 5.795632e+004
2.203056e+002, 5.827419e+004
2.203446e+002, 5.805887e+004
2.203835e+002, 5.778830e+004
2.204224e+002, 5.766653e+004
2.204613e+002, 5.764919e+004
2.205002e+002, 5.756237e+004
2.205392e+002, 5.760846e+004
2.205781e+002, 5.727083e+004
2.206170e+002, 5.741801e+004
2.206559e+002, 5.769583e+004
2.206949e+002, 5.778912e+004
2.207338e+002, 5.786452e+004
2.207727e+002, 5.804731e+004
2.208116e+002, 5.808723e+004
2.208505e+002, 5.775215e+004
2.208895e+002, 5.757419e+004
2.209284e+002, 5.765457e+004
2.209673e+002, 5.764839e+004
2.210062e+002, 5.770068e+004
2.210451e+002, 5.757258e+004
2.210841e+002, 5.771075e+004
2.211230e+002, 5.803696e+004
2.211619e+002, 5.727070e+004
2.212008e+002, 5.734879e+004
2.212397e+002, 5.766519e+004
2.212787e+002, 5.730726e+004
2.213176e+002, 5.732231e+004
2.213565e+002, 5.729946e+004
2.213954e+002, 5.812970e+004
2.214343e+002, 5.747769e+004
2.214733e+002, 5.694933e+004
2.215122e+002, 5.700457e+004
2.215511e+002, 5.683441e+004
2.215900e+002, 5.732056e+004
2.216290e+002, 5.737029e+004
2.216679e+002, 5.670336e+004
2.217068e+002, 5.708521e+004
2.217457e+002, 5.720403e+004
2.217846e+002, 5.728092e+004
2.218235e+002, 5.723736e+004
2.218625e+002, 5.733213e+004
2.219014e+002, 5.732379e+004
2.219403e+002, 5.716922e+004
2.219792e+002, 5.630968e+004
2.220182e+002, 5.648266e+004
2.220571e+002, 5.670713e+004
2.220960e+002, 5.703709e+004
2.221349e+002, 5.665752e+004
2.221738e+002, 5.733373e+004
2.222128e+002, 5.688186e+004
2.222517e+002, 5.656963e+004
2.222906e+002, 5.675067e+004
2.223295e+002, 5.625981e+004
2.223684e+002, 5.674530e+004
2.224074e+002, 5.718871e+004
2.224463e+002, 5.615175e+004
2.224852e+002, 5.649019e+004
2.225241e+002, 5.652392e+004
2.225630e+002, 5.706358e+004
2.226020e+002, 5.708495e+004
2.226409e+002, 5.638670e+004
2.226798e+002, 5.665846e+004
2.227187e+002, 5.651142e+004
2.227576e+002, 5.627742e+004
2.227966e+002, 5.619825e+004
2.228355e+002, 5.654530e+004
2.228744e+002, 5.659529e+004
2.229133e+002, 5.686976e+004
2.229523e+002, 5.660161e+004
2.229912e+002, 5.621263e+004
2.230301e+002, 5.625551e+004
2.230690e+002, 5.603508e+004
2.231079e+002, 5.586102e+004
2.231469e+002, 5.562245e+004
2.231858e+002, 5.570013e+004
2.232247e+002, 5.611654e+004
2.232636e+002, 5.603400e+004
2.233025e+002, 5.571559e+004
2.233415e+002, 5.587150e+004
2.233804e+002, 5.547513e+004
2.234193e+002, 5.511008e+004
2.234582e+002, 5.509611e+004
2.234971e+002, 5.571734e+004
2.235361e+002, 5.602339e+004
2.235750e+002, 5.579234e+004
2.236139e+002, 5.545242e+004
2.236528e+002, 5.540417e+004
2.236917e+002, 5.583011e+004
2.237307e+002, 5.586452e+004
2.237696e+002, 5.556264e+004
2.238085e+002, 5.592796e+004
2.238474e+002, 5.549355e+004
2.238864e+002, 5.555766e+004
2.239253e+002, 5.580014e+004
2.239642e+002, 5.534409e+004
2.240031e+002, 5.524261e+004
2.240420e+002, 5.535215e+004
2.240809e+002, 5.560054e+004
2.241199e+002, 5.531895e+004
2.241588e+002, 5.521963e+004
2.241977e+002, 5.508723e+004
2.242366e+002, 5.532836e+004
2.242755e+002, 5.542984e+004
2.243145e+002, 5.509745e+004
2.243534e+002, 5.519785e+004
2.243923e+002, 5.496196e+004
2.244312e+002, 5.485914e+004
2.244702e+002, 5.476089e+004
2.245091e+002, 5.507675e+004
2.245480e+002, 5.520444e+004
2.245869e+002, 5.492205e+004
2.246258e+002, 5.493616e+004
2.246648e+002, 5.496116e+004
2.247037e+002, 5.512272e+004
2.247426e+002, 5.496223e+004
2.247815e+002, 5.456680e+004
2.248204e+002, 5.490390e+004
2.248594e+002, 5.457070e+004
2.248983e+002, 5.505430e+004
2.249372e+002, 5.508280e+004
2.249761e+002, 5.483831e+004
2.250150e+002, 5.515618e+004
2.250540e+002, 5.473159e+004
2.250929e+002, 5.475901e+004
2.251318e+002, 5.397379e+004
2.251707e+002, 5.388548e+004
2.252096e+002, 5.436573e+004
2.252486e+002, 5.460578e+004
2.252875e+002, 5.429718e+004
2.253264e+002, 5.406438e+004
2.253653e+002, 5.429032e+004
2.254043e+002, 5.431775e+004
2.254432e+002, 5.421291e+004
2.254821e+002, 5.395888e+004
2.255210e+002, 5.399852e+004
2.255599e+002, 5.380538e+004
2.255988e+002, 5.426143e+004
2.256378e+002, 5.373118e+004
2.256767e+002, 5.354503e+004
2.257156e+002, 5.421250e+004
2.257545e+002, 5.446868e+004
2.257935e+002, 5.419879e+004
2.258324e+002, 5.398535e+004
2.258713e+002, 5.387850e+004
2.259102e+002, 5.394234e+004
2.259491e+002, 5.390753e+004
2.259881e+002, 5.387608e+004
2.260270e+002, 5.436505e+004
2.260659e+002, 5.351519e+004
2.261048e+002, 5.367635e+004
2.261437e+002, 5.353696e+004
2.261827e+002, 5.366694e+004
2.262216e+002, 5.348280e+004
2.262605e+002, 5.349140e+004
2.262994e+002, 5.380605e+004
2.263383e+002, 5.285699e+004
2.263773e+002, 5.320054e+004
2.264162e+002, 5.297043e+004
2.264551e+002, 5.294557e+004
2.264940e+002, 5.322823e+004
2.265329e+002, 5.318414e+004
2.265719e+002, 5.323656e+004
2.266108e+002, 5.314127e+004
2.266497e+002, 5.305390e+004
2.266886e+002, 5.285041e+004
2.267275e+002, 5.302003e+004
2.267665e+002, 5.300242e+004
2.268054e+002, 5.288629e+004
2.268443e+002, 5.278683e+004
2.268832e+002, 5.276949e+004
2.269221e+002, 5.288293e+004
2.269611e+002, 5.322178e+004
2.270000e+002, 5.274893e+004
2.270389e+002, 5.292742e+004
2.270778e+002, 5.268696e+004
2.271168e+002, 5.256963e+004
2.271557e+002, 5.308508e+004
2.271946e+002, 5.310793e+004
2.272335e+002, 5.290632e+004
2.272724e+002, 5.231129e+004
2.273114e+002, 5.190041e+004
2.273503e+002, 5.197904e+004
2.273892e+002, 5.253602e+004
2.274281e+002, 5.263374e+004
2.274670e+002, 5.277084e+004
2.275060e+002, 5.205148e+004
2.275449e+002, 5.259611e+004
2.275838e+002, 5.228186e+004
2.276227e+002, 5.194248e+004
2.276617e+002, 5.231707e+004
2.277006e+002, 5.244476e+004
2.277395e+002, 5.253011e+004
2.277784e+002, 5.228239e+004
2.278173e+002, 5.199651e+004
2.278562e+002, 5.173078e+004
2.278952e+002, 5.180323e+004
2.279341e+002, 5.193885e+004
2.279730e+002, 5.196102e+004
2.280119e+002, 5.231519e+004
2.280508e+002, 5.163145e+004
2.280898e+002, 5.126183e+004
2.281287e+002, 5.113374e+004
2.281676e+002, 5.168535e+004
2.282065e+002, 5.181640e+004
2.282455e+002, 5.104852e+004
2.282844e+002, 5.111949e+004
2.283233e+002, 5.157393e+004
2.283622e+002, 5.115417e+004
2.284011e+002, 5.131196e+004
2.284401e+002, 5.175363e+004
2.284790e+002, 5.116680e+004
2.285179e+002, 5.119758e+004
2.285568e+002, 5.132635e+004
2.285957e+002, 5.156734e+004
2.286347e+002, 5.139933e+004
2.286736e+002, 5.122500e+004
2.287125e+002, 5.127352e+004
2.287514e+002, 5.143844e+004
2.287903e+002, 5.160229e+004
2.288293e+002, 5.089906e+004
2.288682e+002, 5.086721e+004
2.289071e+002, 5.063818e+004
2.289460e+002, 5.123361e+004
2.289849e+002, 5.095592e+004
2.290239e+002, 5.062191e+004
2.290628e+002, 5.093388e+004
2.291017e+002, 5.136586e+004
2.291406e+002, 5.100565e+004
2.291796e+002, 5.098898e+004
2.292185e+002, 5.129920e+004
2.292574e+002, 5.118696e+004
2.292963e+002, 5.087541e+004
2.293352e+002, 5.088629e+004
2.293741e+002, 5.077218e+004
2.294131e+002, 5.111304e+004
2.294520e+002, 5.075753e+004
2.294909e+002, 5.024422e+004
2.295298e+002, 4.993172e+004
2.295688e+002, 5.050753e+004
2.296077e+002, 5.031868e+004
2.296466e+002, 5.079086e+004
2.296855e+002, 5.056640e+004
2.297244e+002, 5.083186e+004
2.297634e+002, 5.025121e+004
2.298023e+002, 5.054745e+004
2.298412e+002, 5.071694e+004
2.298801e+002, 5.010525e+004
2.299190e+002, 5.026277e+004
2.299580e+002, 5.014234e+004
2.299969e+002, 5.030135e+004
2.300358e+002, 5.052702e+004
2.300747e+002, 5.067043e+004
2.301136e+002, 5.073361e+004
2.301526e+002, 5.062352e+004
2.301915e+002, 5.051734e+004
2.302304e+002, 5.045941e+004
2.302693e+002, 5.027796e+004
2.303082e+002, 5.014517e+004
2.303472e+002, 5.033898e+004
2.303861e+002, 5.022836e+004
2.304250e+002, 5.004812e+004
2.304639e+002, 4.984839e+004
2.305028e+002, 4.998993e+004
2.305418e+002, 4.972339e+004
2.305807e+002, 4.974772e+004
2.306196e+002, 4.983239e+004
2.306585e+002, 4.993509e+004
2.306974e+002, 5.007473e+004
2.307364e+002, 4.969934e+004
2.307753e+002, 4.974463e+004
2.308142e+002, 4.945458e+004
2.308531e+002, 4.934772e+004
2.308921e+002, 4.950727e+004
2.309310e+002, 4.960161e+004
2.309699e+002, 4.974032e+004
2.310088e+002, 4.934651e+004
2.310477e+002, 4.972823e+004
2.310867e+002, 5.013925e+004
2.311256e+002, 4.933199e+004
2.311645e+002, 4.920498e+004
2.312034e+002, 4.946801e+004
2.312423e+002, 4.939516e+004
2.312813e+002, 4.947742e+004
2.313202e+002, 4.908831e+004
2.313591e+002, 4.875699e+004
2.313980e+002, 4.923898e+004
2.314370e+002, 4.960578e+004
2.314759e+002, 4.928334e+004
2.315148e+002, 4.937003e+004
2.315537e+002, 4.907501e+004
2.315926e+002, 4.928361e+004
2.316315e+002, 4.912164e+004
2.316705e+002, 4.905941e+004
2.317094e+002, 4.893334e+004
2.317483e+002, 4.889678e+004
2.317872e+002, 4.896855e+004
2.318261e+002, 4.898965e+004
2.318651e+002, 4.893186e+004
2.319040e+002, 4.926479e+004
2.319429e+002, 4.920014e+004
2.319818e+002, 4.888710e+004
2.320208e+002, 4.896277e+004
2.320597e+002, 4.892541e+004
2.320986e+002, 4.880000e+004
2.321375e+002, 4.871614e+004
2.321764e+002, 4.840175e+004
2.322154e+002, 4.875847e+004
2.322543e+002, 4.874329e+004
2.322932e+002, 4.864382e+004
2.323321e+002, 4.903227e+004
2.323710e+002, 4.868266e+004
2.324100e+002, 4.830188e+004
2.324489e+002, 4.867971e+004
2.324878e+002, 4.911076e+004
2.325267e+002, 4.844571e+004
2.325656e+002, 4.830014e+004
2.326046e+002, 4.828226e+004
2.326435e+002, 4.813656e+004
2.326824e+002, 4.823025e+004
2.327213e+002, 4.794664e+004
2.327602e+002, 4.823656e+004
2.327992e+002, 4.862971e+004
2.328381e+002, 4.827877e+004
2.328770e+002, 4.782971e+004
2.329159e+002, 4.767111e+004
2.329548e+002, 4.786990e+004
2.329938e+002, 4.755471e+004
2.330327e+002, 4.790243e+004
2.330716e+002, 4.805847e+004
2.331105e+002, 4.803871e+004
2.331494e+002, 4.793656e+004
2.331884e+002, 4.802917e+004
2.332273e+002, 4.762446e+004
2.332662e+002, 4.829812e+004
2.333051e+002, 4.777770e+004
2.333441e+002, 4.790753e+004
2.333830e+002, 4.796667e+004
2.334219e+002, 4.755713e+004
2.334608e+002, 4.724812e+004
2.334997e+002, 4.766062e+004
2.335387e+002, 4.795014e+004
2.335776e+002, 4.781398e+004
2.336165e+002, 4.742313e+004
2.336554e+002, 4.753563e+004
2.336943e+002, 4.728495e+004
2.337333e+002, 4.772460e+004
2.337722e+002, 4.714328e+004
2.338111e+002, 4.732527e+004
2.338500e+002, 4.713239e+004
2.338889e+002, 4.752608e+004
2.339279e+002, 4.754503e+004
2.339668e+002, 4.747420e+004
2.340057e+002, 4.767124e+004
2.340446e+002, 4.744181e+004
2.340835e+002, 4.739866e+004
2.341225e+002, 4.704907e+004
2.341614e+002, 4.709207e+004
2.342003e+002, 4.713724e+004
2.342392e+002, 4.697003e+004
2.342781e+002, 4.701466e+004
2.343171e+002, 4.695202e+004
2.343560e+002, 4.700928e+004
2.343949e+002, 4.726264e+004
2.344338e+002, 4.748186e+004
2.344727e+002, 4.722877e+004
2.345117e+002, 4.726614e+004
2.345506e+002, 4.705216e+004
2.345895e+002, 4.663388e+004
2.346284e+002, 4.679557e+004
2.346674e+002, 4.699275e+004
2.347063e+002, 4.661022e+004
2.347452e+002, 4.692366e+004
2.347841e+002, 4.712864e+004
2.348230e+002, 4.705700e+004
2.348620e+002, 4.701895e+004
2.349009e+002, 4.691022e+004
2.349398e+002, 4.734759e+004
2.349787e+002, 4.666654e+004
2.350176e+002, 4.643750e+004
2.350565e+002, 4.655646e+004
2.350955e+002, 4.675928e+004
2.351344e+002, 4.670270e+004
2.351733e+002, 4.616896e+004
2.352122e+002, 4.604530e+004
2.352512e+002, 4.665794e+004
2.352901e+002, 4.631331e+004
2.353290e+002, 4.646855e+004
2.353679e+002, 4.623993e+004
2.354068e+002, 4.657863e+004
2.354458e+002, 4.638576e+004
2.354847e+002, 4.682339e+004
2.355236e+002, 4.628186e+004
2.355625e+002, 4.667675e+004
2.356014e+002, 4.622581e+004
2.356404e+002, 4.623199e+004
2.356793e+002, 4.582151e+004
2.357182e+002, 4.615740e+004
2.357571e+002, 4.604705e+004
2.357961e+002, 4.565162e+004
2.358350e+002, 4.582016e+004
2.358739e+002, 4.591358e+004
2.359128e+002, 4.643146e+004
2.359517e+002, 4.622030e+004
2.359906e+002, 4.604073e+004
2.360296e+002, 4.607554e+004
2.360685e+002, 4.576882e+004
2.361074e+002, 4.577191e+004
2.361463e+002, 4.612662e+004
2.361853e+002, 4.608307e+004
2.362242e+002, 4.646734e+004
2.362631e+002, 4.541143e+004
2.363020e+002, 4.555162e+004
2.363409e+002, 4.564100e+004
2.363799e+002, 4.577111e+004
2.364188e+002, 4.570014e+004
2.364577e+002, 4.568751e+004
2.364966e+002, 4.565901e+004
2.365355e+002, 4.553105e+004
2.365745e+002, 4.558804e+004
2.366134e+002, 4.545041e+004
2.366523e+002, 4.513589e+004
2.366912e+002, 4.542877e+004
2.367301e+002, 4.549489e+004
2.367691e+002, 4.568213e+004
2.368080e+002, 4.545269e+004
2.368469e+002, 4.532097e+004
2.368858e+002, 4.525605e+004
2.369247e+002, 4.518159e+004
2.369637e+002, 4.563751e+004
2.370026e+002, 4.518495e+004
2.370415e+002, 4.520417e+004
2.370804e+002, 4.532944e+004
2.371194e+002, 4.579020e+004
2.371583e+002, 4.545364e+004
2.371972e+002, 4.554544e+004
2.372361e+002, 4.544799e+004
2.372750e+002, 4.544302e+004
2.373139e+002, 4.496909e+004
2.373529e+002, 4.532554e+004
2.373918e+002, 4.546425e+004
2.374307e+002, 4.536116e+004
2.374696e+002, 4.502151e+004
2.375086e+002, 4.481452e+004
2.375475e+002, 4.506721e+004
2.375864e+002, 4.535914e+004
2.376253e+002, 4.521022e+004
2.376642e+002, 4.526439e+004
2.377032e+002, 4.494449e+004
2.377421e+002, 4.467729e+004
2.377810e+002, 4.470108e+004
2.378199e+002, 4.428764e+004
2.378588e+002, 4.473724e+004
2.378978e+002, 4.484799e+004
2.379367e+002, 4.460538e+004
2.379756e+002, 4.473858e+004
2.380145e+002, 4.495753e+004
2.380534e+002, 4.496479e+004
2.380924e+002, 4.483226e+004
2.381313e+002, 4.449100e+004
2.381702e+002, 4.464261e+004
2.382091e+002, 4.450619e+004
2.382480e+002, 4.460081e+004
2.382870e+002, 4.435175e+004
2.383259e+002, 4.403562e+004
2.383648e+002, 4.427514e+004
2.384037e+002, 4.492420e+004
2.384427e+002, 4.508630e+004
2.384816e+002, 4.438186e+004
2.385205e+002, 4.425323e+004
2.385594e+002, 4.429839e+004
2.385983e+002, 4.424301e+004
2.386373e+002, 4.445591e+004
2.386762e+002, 4.424114e+004
2.387151e+002, 4.437460e+004
2.387540e+002, 4.453307e+004
2.387929e+002, 4.424557e+004
2.388318e+002, 4.416855e+004
2.388708e+002, 4.460323e+004
2.389097e+002, 4.439624e+004
2.389486e+002, 4.418294e+004
2.389875e+002, 4.446089e+004
2.390265e+002, 4.450605e+004
2.390654e+002, 4.437043e+004
2.391043e+002, 4.377595e+004
2.391432e+002, 4.386412e+004
2.391821e+002, 4.361775e+004
2.392211e+002, 4.389221e+004
2.392600e+002, 4.372044e+004
2.392989e+002, 4.368118e+004
2.393378e+002, 4.379073e+004
2.393767e+002, 4.379086e+004
2.394157e+002, 4.385430e+004
2.394546e+002, 4.376036e+004
2.394935e+002, 4.349678e+004
2.395324e+002, 4.360189e+004
2.395714e+002, 4.405135e+004
2.396103e+002, 4.346237e+004
2.396492e+002, 4.348804e+004
2.396881e+002, 4.363200e+004
2.397270e+002, 4.347003e+004
2.397659e+002, 4.372729e+004
2.398049e+002, 4.340457e+004
2.398438e+002, 4.380014e+004
2.398827e+002, 4.371250e+004
2.399216e+002, 4.368992e+004
2.399606e+002, 4.301492e+004
2.399995e+002, 4.334866e+004
2.400384e+002, 4.349664e+004
2.400773e+002, 4.329597e+004
2.401162e+002, 4.324597e+004
2.401552e+002, 4.369221e+004
2.401941e+002, 4.325901e+004
2.402330e+002, 4.305175e+004
2.402719e+002, 4.317568e+004
2.403108e+002, 4.342447e+004
2.403498e+002, 4.342554e+004
2.403887e+002, 4.385337e+004
2.404276e+002, 4.342783e+004
2.404665e+002, 4.281452e+004
2.405054e+002, 4.289194e+004
2.405444e+002, 4.273966e+004
2.405833e+002, 4.334503e+004
2.406222e+002, 4.372904e+004
2.406611e+002, 4.360591e+004
2.407000e+002, 4.340350e+004
2.407390e+002, 4.317030e+004
2.407779e+002, 4.315727e+004
2.408168e+002, 4.308159e+004
2.408557e+002, 4.286277e+004
2.408947e+002, 4.296923e+004
2.409336e+002, 4.280135e+004
2.409725e+002, 4.277729e+004
2.410114e+002, 4.306465e+004
2.410503e+002, 4.306963e+004
2.410892e+002, 4.272971e+004
2.411282e+002, 4.293091e+004
2.411671e+002, 4.309812e+004
2.412060e+002, 4.297420e+004
2.412449e+002, 4.277662e+004
2.412839e+002, 4.293186e+004
2.413228e+002, 4.253777e+004
2.413617e+002, 4.233750e+004
2.414006e+002, 4.222339e+004
2.414395e+002, 4.262473e+004
2.414785e+002, 4.266681e+004
2.415174e+002, 4.261223e+004
2.415563e+002, 4.275310e+004
2.415952e+002, 4.257715e+004
2.416341e+002, 4.241546e+004
2.416731e+002, 4.252138e+004
2.417120e+002, 4.201506e+004
2.417509e+002, 4.213293e+004
2.417898e+002, 4.223724e+004
2.418287e+002, 4.296654e+004
2.418677e+002, 4.230914e+004
2.419066e+002, 4.203885e+004
2.419455e+002, 4.204530e+004
2.419844e+002, 4.252084e+004
2.420233e+002, 4.217017e+004
2.420623e+002, 4.230901e+004
2.421012e+002, 4.201520e+004
2.421401e+002, 4.228710e+004
2.421790e+002, 4.240350e+004
2.422180e+002, 4.229463e+004
2.422569e+002, 4.233495e+004
2.422958e+002, 4.199772e+004
2.423347e+002, 4.208334e+004
2.423736e+002, 4.215242e+004
2.424126e+002, 4.159624e+004
2.424515e+002, 4.135054e+004
2.424904e+002, 4.189960e+004
2.425293e+002, 4.164772e+004
2.425682e+002, 4.195672e+004
2.426071e+002, 4.225471e+004
2.426461e+002, 4.174597e+004
2.426850e+002, 4.191358e+004
2.427239e+002, 4.174342e+004
2.427628e+002, 4.147138e+004
2.428018e+002, 4.204490e+004
2.428407e+002, 4.246519e+004
2.428796e+002, 4.216815e+004
2.429185e+002, 4.204786e+004
2.429574e+002, 4.197877e+004
2.429964e+002, 4.212743e+004
2.430353e+002, 4.156371e+004
2.430742e+002, 4.167971e+004
2.431131e+002, 4.119852e+004
2.431520e+002, 4.119973e+004
2.431910e+002, 4.139557e+004
2.432299e+002, 4.164409e+004
2.432688e+002, 4.182998e+004
2.433077e+002, 4.142446e+004
2.433466e+002, 4.124020e+004
2.433856e+002, 4.107420e+004
2.434245e+002, 4.109409e+004
2.434634e+002, 4.149718e+004
2.435023e+002, 4.102259e+004
2.435412e+002, 4.129059e+004
2.435802e+002, 4.165618e+004
2.436191e+002, 4.138952e+004
2.436580e+002, 4.146707e+004
2.436969e+002, 4.130820e+004
2.437359e+002, 4.134274e+004
2.437748e+002, 4.146103e+004
2.438137e+002, 4.123239e+004
2.438526e+002, 4.057621e+004
2.438915e+002, 4.085350e+004
2.439305e+002, 4.109087e+004
2.439694e+002, 4.120941e+004
2.440083e+002, 4.099194e+004
2.440472e+002, 4.081479e+004
2.440861e+002, 4.054557e+004
2.441251e+002, 4.112446e+004
2.441640e+002, 4.122111e+004
2.442029e+002, 4.108468e+004
2.442418e+002, 4.074180e+004
2.442807e+002, 4.102164e+004
2.443197e+002, 4.100054e+004
2.443586e+002, 4.083696e+004
2.443975e+002, 4.090807e+004
2.444364e+002, 4.098777e+004
2.444753e+002, 4.095659e+004
2.445143e+002, 4.095874e+004
2.445532e+002, 4.125538e+004
2.445921e+002, 4.090753e+004
2.446310e+002, 4.085820e+004
2.446700e+002, 4.085982e+004
2.447089e+002, 4.115323e+004
2.447478e+002, 4.085162e+004
2.447867e+002, 4.057541e+004
2.448256e+002, 4.038119e+004
2.448645e+002, 4.074301e+004
2.449035e+002, 4.044745e+004
2.449424e+002, 4.075551e+004
2.449813e+002, 4.082702e+004
2.450202e+002, 4.084100e+004
2.450591e+002, 4.057030e+004
2.450981e+002, 4.041841e+004
2.451370e+002, 4.030847e+004
2.451759e+002, 4.030001e+004
2.452148e+002, 4.061950e+004
2.452538e+002, 4.050229e+004
2.452927e+002, 4.095188e+004
2.453316e+002, 4.047568e+004
2.453705e+002, 4.056775e+004
2.454094e+002, 4.062016e+004
2.454484e+002, 4.042313e+004
2.454873e+002, 4.032554e+004
2.455262e+002, 4.039624e+004
2.455651e+002, 4.050914e+004
2.456040e+002, 4.033387e+004
2.456430e+002, 4.029866e+004
2.456819e+002, 4.029973e+004
2.457208e+002, 4.011075e+004
2.457597e+002, 4.008482e+004
2.457986e+002, 4.025081e+004
2.458376e+002, 3.980364e+004
2.458765e+002, 4.008227e+004
2.459154e+002, 3.976063e+004
2.459543e+002, 3.978052e+004
2.459933e+002, 4.021587e+004
2.460322e+002, 4.025282e+004
2.460711e+002, 3.998696e+004
2.461100e+002, 4.012944e+004
2.461489e+002, 3.986479e+004
2.461879e+002, 3.962689e+004
2.462268e+002, 3.961425e+004
2.462657e+002, 3.981466e+004
2.463046e+002, 3.988213e+004
2.463435e+002, 3.984127e+004
2.463824e+002, 3.947823e+004
2.464214e+002, 3.961654e+004
2.464603e+002, 3.993683e+004
2.464992e+002, 3.973522e+004
2.465381e+002, 3.950309e+004
2.465771e+002, 3.963468e+004
2.466160e+002, 3.961520e+004
2.466549e+002, 3.978871e+004
2.466938e+002, 4.029369e+004
2.467327e+002, 3.993656e+004
2.467717e+002, 3.958146e+004
2.468106e+002, 3.951627e+004
2.468495e+002, 3.953253e+004
2.468884e+002, 3.961183e+004
2.469273e+002, 4.009194e+004
2.469663e+002, 3.999248e+004
2.470052e+002, 3.927353e+004
2.470441e+002, 3.958186e+004
2.470830e+002, 3.942231e+004
2.471219e+002, 3.950901e+004
2.471609e+002, 3.922057e+004
2.471998e+002, 3.954785e+004
2.472387e+002, 3.894691e+004
2.472776e+002, 3.904100e+004
2.473165e+002, 3.920417e+004
2.473555e+002, 3.891331e+004
2.473944e+002, 3.874355e+004
2.474333e+002, 3.913737e+004
2.474722e+002, 3.933145e+004
2.475112e+002, 3.902473e+004
2.475501e+002, 3.896869e+004
2.475890e+002, 3.900632e+004
2.476279e+002, 3.969046e+004
2.476668e+002, 3.942755e+004
2.477057e+002, 3.918347e+004
2.477447e+002, 3.904893e+004
2.477836e+002, 3.927366e+004
2.478225e+002, 3.920417e+004
2.478614e+002, 3.906237e+004
2.479004e+002, 3.888159e+004
2.479393e+002, 3.918696e+004
2.479782e+002, 3.879409e+004
2.480171e+002, 3.884046e+004
2.480560e+002, 3.898495e+004
2.480950e+002, 3.929987e+004
2.481339e+002, 3.881734e+004
2.481728e+002, 3.878670e+004
2.482117e+002, 3.847971e+004
2.482506e+002, 3.857057e+004
2.482896e+002, 3.846855e+004
2.483285e+002, 3.874422e+004
2.483674e+002, 3.852783e+004
2.484063e+002, 3.817138e+004
2.484453e+002, 3.853294e+004
2.484842e+002, 3.882030e+004
2.485231e+002, 3.883724e+004
2.485620e+002, 3.832111e+004
2.486009e+002, 3.861411e+004
2.486398e+002, 3.882554e+004
2.486788e+002, 3.861075e+004
2.487177e+002, 3.881519e+004
2.487566e+002, 3.873710e+004
2.487955e+002, 3.847111e+004
2.488344e+002, 3.869409e+004
2.488734e+002, 3.857581e+004
2.489123e+002, 3.790390e+004
2.489512e+002, 3.827554e+004
2.489901e+002, 3.799987e+004
2.490291e+002, 3.780323e+004
2.490680e+002, 3.835054e+004
2.491069e+002, 3.803307e+004
2.491458e+002, 3.815618e+004
2.491847e+002, 3.810955e+004
2.492237e+002, 3.854449e+004
2.492626e+002, 3.858051e+004
2.493015e+002, 3.852621e+004
2.493404e+002, 3.834060e+004
2.493793e+002, 3.826532e+004
2.494183e+002, 3.831923e+004
2.494572e+002, 3.823293e+004
2.494961e+002, 3.812433e+004
2.495350e+002, 3.842688e+004
2.495739e+002, 3.824221e+004
2.496129e+002, 3.834086e+004
2.496518e+002, 3.819436e+004
2.496907e+002, 3.820431e+004
2.497296e+002, 3.816022e+004
2.497686e+002, 3.830834e+004
2.498075e+002, 3.806009e+004
2.498464e+002, 3.764194e+004
2.498853e+002, 3.765645e+004
2.499242e+002, 3.733603e+004
2.499632e+002, 3.784933e+004
2.500021e+002, 3.788858e+004
2.500410e+002, 3.798696e+004
2.500799e+002, 3.801949e+004
2.501188e+002, 3.773563e+004
2.501577e+002, 3.785484e+004
2.501967e+002, 3.780014e+004
2.502356e+002, 3.793401e+004
2.502745e+002, 3.773522e+004
2.503134e+002, 3.758172e+004
2.503524e+002, 3.788011e+004
2.503913e+002, 3.779489e+004
2.504302e+002, 3.811963e+004
2.504691e+002, 3.816573e+004
2.505080e+002, 3.774637e+004
2.505470e+002, 3.764436e+004
2.505859e+002, 3.765834e+004
2.506248e+002, 3.754315e+004
2.506637e+002, 3.794584e+004
2.507026e+002, 3.759328e+004
2.507416e+002, 3.761855e+004
2.507805e+002, 3.734154e+004
2.508194e+002, 3.744852e+004
2.508583e+002, 3.715471e+004
2.508972e+002, 3.775968e+004
2.509362e+002, 3.803898e+004
2.509751e+002, 3.786224e+004
2.510140e+002, 3.772796e+004
2.510529e+002, 3.736654e+004
2.510918e+002, 3.740269e+004
2.511308e+002, 3.763710e+004
2.511697e+002, 3.750766e+004
2.512086e+002, 3.706667e+004
2.512475e+002, 3.721882e+004
2.512864e+002, 3.725740e+004
2.513254e+002, 3.713253e+004
2.513643e+002, 3.723965e+004
2.514032e+002, 3.703240e+004
2.514421e+002, 3.712500e+004
2.514810e+002, 3.725068e+004
2.515200e+002, 3.687755e+004
2.515589e+002, 3.682487e+004
2.515978e+002, 3.726250e+004
2.516367e+002, 3.725309e+004
2.516757e+002, 3.707931e+004
2.517146e+002, 3.721318e+004
2.517535e+002, 3.709328e+004
2.517924e+002, 3.697514e+004
2.518313e+002, 3.668091e+004
2.518703e+002, 3.718159e+004
2.519092e+002, 3.697460e+004
2.519481e+002, 3.682567e+004
2.519870e+002, 3.713616e+004
2.520259e+002, 3.734530e+004
2.520648e+002, 3.683737e+004
2.521038e+002, 3.654825e+004
2.521427e+002, 3.630645e+004
2.521816e+002, 3.647715e+004
2.522206e+002, 3.681896e+004
2.522595e+002, 3.640672e+004
2.522984e+002, 3.618159e+004
2.523373e+002, 3.647191e+004
2.523762e+002, 3.728602e+004
2.524151e+002, 3.716977e+004
2.524541e+002, 3.683938e+004
2.524930e+002, 3.678024e+004
2.525319e+002, 3.666963e+004
2.525708e+002, 3.671116e+004
2.526097e+002, 3.688253e+004
2.526487e+002, 3.656614e+004
2.526876e+002, 3.668172e+004
2.527265e+002, 3.653938e+004
2.527654e+002, 3.645591e+004
2.528044e+002, 3.621062e+004
2.528433e+002, 3.652097e+004
2.528822e+002, 3.648844e+004
2.529211e+002, 3.630807e+004
2.529600e+002, 3.595901e+004
2.529990e+002, 3.643441e+004
2.530379e+002, 3.655377e+004
2.530768e+002, 3.629489e+004
2.531157e+002, 3.597743e+004
2.531546e+002, 3.642204e+004
2.531936e+002, 3.659073e+004
2.532325e+002, 3.625727e+004
2.532714e+002, 3.597124e+004
2.533103e+002, 3.631560e+004
2.533492e+002, 3.626411e+004
2.533882e+002, 3.613401e+004
2.534271e+002, 3.586116e+004
2.534660e+002, 3.625243e+004
2.535049e+002, 3.640605e+004
2.535439e+002, 3.576963e+004
2.535828e+002, 3.586788e+004
2.536217e+002, 3.589368e+004
2.536606e+002, 3.614261e+004
2.536995e+002, 3.595309e+004
2.537384e+002, 3.590565e+004
2.537774e+002, 3.595189e+004
2.538163e+002, 3.608939e+004
2.538552e+002, 3.589449e+004
2.538941e+002, 3.574584e+004
2.539330e+002, 3.577971e+004
2.539720e+002, 3.596224e+004
2.540109e+002, 3.525417e+004
2.540498e+002, 3.554543e+004
2.540887e+002, 3.615296e+004
2.541277e+002, 3.616707e+004
2.541666e+002, 3.648118e+004
2.542055e+002, 3.580632e+004
2.542444e+002, 3.575954e+004
2.542833e+002, 3.549274e+004
2.543223e+002, 3.543696e+004
2.543612e+002, 3.510981e+004
2.544001e+002, 3.539530e+004
2.544390e+002, 3.516788e+004
2.544779e+002, 3.519476e+004
2.545169e+002, 3.524207e+004
2.545558e+002, 3.551479e+004
2.545947e+002, 3.579368e+004
2.546336e+002, 3.578509e+004
2.546725e+002, 3.596505e+004
2.547115e+002, 3.531950e+004
2.547504e+002, 3.509678e+004
2.547893e+002, 3.502971e+004
2.548282e+002, 3.527070e+004
2.548671e+002, 3.579181e+004
2.549061e+002, 3.566815e+004
2.549450e+002, 3.552487e+004
2.549839e+002, 3.502433e+004
2.550228e+002, 3.469772e+004
2.550617e+002, 3.491102e+004
2.551007e+002, 3.546062e+004
2.551396e+002, 3.548562e+004
2.551785e+002, 3.535270e+004
2.552174e+002, 3.526519e+004
2.552563e+002, 3.556600e+004
2.552953e+002, 3.569261e+004
2.553342e+002, 3.535807e+004
2.553731e+002, 3.538925e+004
2.554120e+002, 3.514745e+004
2.554510e+002, 3.513562e+004
2.554899e+002, 3.503347e+004
2.555288e+002, 3.474234e+004
2.555677e+002, 3.490766e+004
2.556066e+002, 3.510645e+004
2.556456e+002, 3.441909e+004
2.556845e+002, 3.466156e+004
2.557234e+002, 3.434664e+004
2.557623e+002, 3.466505e+004
2.558012e+002, 3.490901e+004
2.558401e+002, 3.495242e+004
2.558791e+002, 3.440363e+004
2.559180e+002, 3.451492e+004
2.559569e+002, 3.461075e+004
2.559958e+002, 3.457567e+004
2.560348e+002, 3.481654e+004
2.560737e+002, 3.476196e+004
2.561126e+002, 3.480134e+004
2.561515e+002, 3.440861e+004
2.561904e+002, 3.472137e+004
2.562294e+002, 3.477178e+004
2.562683e+002, 3.484301e+004
2.563072e+002, 3.480861e+004
2.563461e+002, 3.459086e+004
2.563850e+002, 3.470444e+004
2.564240e+002, 3.486156e+004
2.564629e+002, 3.433548e+004
2.565018e+002, 3.421170e+004
2.565407e+002, 3.450283e+004
2.565797e+002, 3.461479e+004
2.566186e+002, 3.477890e+004
2.566575e+002, 3.462325e+004
2.566964e+002, 3.468468e+004
2.567354e+002, 3.458992e+004
2.567743e+002, 3.428387e+004
2.568132e+002, 3.416748e+004
2.568521e+002, 3.425538e+004
2.568910e+002, 3.450148e+004
2.569299e+002, 3.430121e+004
2.569689e+002, 3.442998e+004
2.570078e+002, 3.448414e+004
2.570467e+002, 3.430390e+004
2.570856e+002, 3.423253e+004
2.571245e+002, 3.395632e+004
2.571635e+002, 3.389463e+004
2.572024e+002, 3.409167e+004
2.572413e+002, 3.408670e+004
2.572802e+002, 3.386170e+004
2.573192e+002, 3.404086e+004
2.573581e+002, 3.402487e+004
2.573970e+002, 3.381680e+004
2.574359e+002, 3.391062e+004
2.574748e+002, 3.404167e+004
2.575137e+002, 3.372769e+004
2.575527e+002, 3.411828e+004
2.575916e+002, 3.413307e+004
2.576305e+002, 3.366761e+004
2.576694e+002, 3.346048e+004
2.577083e+002, 3.367205e+004
2.577473e+002, 3.403696e+004
2.577862e+002, 3.370780e+004
2.578251e+002, 3.391291e+004
2.578640e+002, 3.388508e+004
2.579030e+002, 3.393643e+004
2.579419e+002, 3.382111e+004
2.579808e+002, 3.395618e+004
2.580197e+002, 3.412541e+004
2.580586e+002, 3.408562e+004
2.580976e+002, 3.367715e+004
2.581365e+002, 3.357393e+004
2.581754e+002, 3.380054e+004
2.582143e+002, 3.348213e+004
2.582532e+002, 3.377944e+004
2.582922e+002, 3.368105e+004
2.583311e+002, 3.359489e+004
2.583700e+002, 3.342715e+004
2.584089e+002, 3.348965e+004
2.584478e+002, 3.318831e+004
2.584868e+002, 3.316775e+004
2.585257e+002, 3.346358e+004
2.585646e+002, 3.310726e+004
2.586035e+002, 3.305229e+004
2.586425e+002, 3.353616e+004
2.586814e+002, 3.360713e+004
2.587203e+002, 3.368737e+004
2.587592e+002, 3.358602e+004
2.587981e+002, 3.355202e+004
2.588370e+002, 3.359436e+004
2.588760e+002, 3.320618e+004
2.589149e+002, 3.317500e+004
2.589538e+002, 3.341425e+004
2.589927e+002, 3.310807e+004
2.590316e+002, 3.326868e+004
2.590706e+002, 3.304342e+004
2.591095e+002, 3.334933e+004
2.591484e+002, 3.319221e+004
2.591873e+002, 3.334570e+004
2.592263e+002, 3.307460e+004
2.592652e+002, 3.282595e+004
2.593041e+002, 3.309355e+004
2.593430e+002, 3.334382e+004
2.593819e+002, 3.349032e+004
2.594208e+002, 3.346828e+004
2.594598e+002, 3.305471e+004
2.594987e+002, 3.298602e+004
2.595376e+002, 3.302944e+004
2.595765e+002, 3.324288e+004
2.596154e+002, 3.311747e+004
2.596544e+002, 3.306411e+004
2.596933e+002, 3.323293e+004
2.597322e+002, 3.314247e+004
2.597711e+002, 3.265592e+004
2.598101e+002, 3.284987e+004
2.598490e+002, 3.288306e+004
2.598879e+002, 3.310041e+004
2.599268e+002, 3.277527e+004
2.599658e+002, 3.255699e+004
2.600047e+002, 3.287904e+004
2.600436e+002, 3.294086e+004
2.600825e+002, 3.280457e+004
2.601214e+002, 3.266747e+004
2.601603e+002, 3.256317e+004
2.601993e+002, 3.272124e+004
2.602382e+002, 3.271747e+004
2.602771e+002, 3.265766e+004
2.603160e+002, 3.256721e+004
2.603549e+002, 3.235686e+004
2.603939e+002, 3.201532e+004
2.604328e+002, 3.261170e+004
2.604717e+002, 3.212406e+004
2.605106e+002, 3.221922e+004
2.605496e+002, 3.223253e+004
2.605885e+002, 3.272218e+004
2.606274e+002, 3.270403e+004
2.606663e+002, 3.280699e+004
2.607052e+002, 3.221183e+004
2.607441e+002, 3.244866e+004
2.607831e+002, 3.209234e+004
2.608220e+002, 3.235551e+004
2.608609e+002, 3.223818e+004
2.608998e+002, 3.225054e+004
2.609388e+002, 3.238172e+004
2.609777e+002, 3.221170e+004
2.610166e+002, 3.212339e+004
2.610555e+002, 3.212393e+004
2.610945e+002, 3.224248e+004
2.611334e+002, 3.257621e+004
2.611723e+002, 3.254288e+004
2.612112e+002, 3.266210e+004
2.612501e+002, 3.237406e+004
2.612891e+002, 3.237568e+004
2.613280e+002, 3.239920e+004
2.613669e+002, 3.221922e+004
2.614058e+002, 3.207231e+004
2.614447e+002, 3.221855e+004
2.614836e+002, 3.229449e+004
2.615226e+002, 3.250040e+004
2.615615e+002, 3.249530e+004
2.616004e+002, 3.238871e+004
2.616393e+002, 3.193885e+004
2.616783e+002, 3.182070e+004
2.617172e+002, 3.168360e+004
2.617561e+002, 3.174516e+004
2.617950e+002, 3.162702e+004
2.618339e+002, 3.159865e+004
2.618729e+002, 3.188092e+004
2.619118e+002, 3.184046e+004
2.619507e+002, 3.200081e+004
2.619896e+002, 3.188213e+004
2.620285e+002, 3.201989e+004
2.620674e+002, 3.149382e+004
2.621064e+002, 3.199261e+004
2.621453e+002, 3.209261e+004
2.621842e+002, 3.173858e+004
2.622231e+002, 3.184826e+004
2.622621e+002, 3.198454e+004
2.623010e+002, 3.182957e+004
2.623399e+002, 3.195067e+004
2.623788e+002, 3.157998e+004
2.624177e+002, 3.151291e+004
2.624567e+002, 3.174234e+004
2.624956e+002, 3.188710e+004
2.625345e+002, 3.132298e+004
2.625734e+002, 3.153938e+004
2.626123e+002, 3.155242e+004
2.626513e+002, 3.198723e+004
2.626902e+002, 3.172930e+004
2.627291e+002, 3.130739e+004
2.627680e+002, 3.124355e+004
2.628069e+002, 3.134301e+004
2.628459e+002, 3.128723e+004
2.628848e+002, 3.116183e+004
2.629237e+002, 3.140578e+004
2.629626e+002, 3.114610e+004
2.630016e+002, 3.111707e+004
2.630405e+002, 3.141479e+004
2.630794e+002, 3.152930e+004
2.631183e+002, 3.147997e+004
2.631572e+002, 3.112930e+004
2.631962e+002, 3.129207e+004
2.632351e+002, 3.094893e+004
2.632740e+002, 3.115766e+004
2.633129e+002, 3.081425e+004
2.633518e+002, 3.074234e+004
2.633907e+002, 3.098562e+004
2.634297e+002, 3.115309e+004
2.634686e+002, 3.091035e+004
2.635075e+002, 3.087608e+004
2.635464e+002, 3.086707e+004
2.635854e+002, 3.117218e+004
2.636243e+002, 3.128844e+004
2.636632e+002, 3.122782e+004
2.637021e+002, 3.113885e+004
2.637410e+002, 3.075659e+004
2.637800e+002, 3.076479e+004
2.638189e+002, 3.095067e+004
2.638578e+002, 3.086680e+004
2.638967e+002, 3.081761e+004
2.639356e+002, 3.081747e+004
2.639745e+002, 3.076882e+004
2.640135e+002, 3.075242e+004
2.640524e+002, 3.037581e+004
2.640913e+002, 3.046734e+004
2.641302e+002, 3.073239e+004
2.641692e+002, 3.071237e+004
2.642081e+002, 3.078696e+004
2.642470e+002, 3.047567e+004
2.642859e+002, 3.061559e+004
2.643249e+002, 3.069718e+004
2.643638e+002, 3.062769e+004
2.644027e+002, 3.049691e+004
2.644416e+002, 3.078199e+004
2.644805e+002, 3.094557e+004
2.645195e+002, 3.062070e+004
2.645584e+002, 3.055148e+004
2.645973e+002, 3.071304e+004
2.646362e+002, 3.082446e+004
2.646751e+002, 3.047715e+004
2.647141e+002, 3.072662e+004
2.647530e+002, 3.052500e+004
2.647919e+002, 3.034920e+004
2.648308e+002, 3.071680e+004
2.648698e+002, 3.027272e+004
2.649087e+002, 3.071035e+004
2.649476e+002, 3.049382e+004
2.649865e+002, 3.052742e+004
2.650254e+002, 3.027903e+004
2.650643e+002, 3.045444e+004
2.651033e+002, 3.009140e+004
2.651422e+002, 3.057245e+004
2.651811e+002, 3.035121e+004
2.652200e+002, 3.022971e+004
2.652589e+002, 3.042097e+004
2.652979e+002, 3.028629e+004
2.653368e+002, 2.988656e+004
2.653757e+002, 3.044100e+004
2.654146e+002, 3.014032e+004
2.654536e+002, 3.015175e+004
2.654925e+002, 3.010108e+004
2.655314e+002, 3.031694e+004
2.655703e+002, 3.030847e+004
2.656092e+002, 3.046519e+004
2.656482e+002, 3.014610e+004
2.656871e+002, 3.025820e+004
2.657260e+002, 3.011774e+004
2.657649e+002, 2.975014e+004
2.658038e+002, 2.977473e+004
2.658428e+002, 3.035188e+004
2.658817e+002, 3.022070e+004
2.659206e+002, 2.959933e+004
2.659595e+002, 2.976035e+004
2.659984e+002, 3.032581e+004
2.660374e+002, 3.039624e+004
2.660763e+002, 3.030981e+004
2.661152e+002, 3.020215e+004
2.661541e+002, 3.012957e+004
2.661931e+002, 2.996223e+004
2.662320e+002, 2.956210e+004
2.662709e+002, 2.965780e+004
2.663098e+002, 3.001237e+004
2.663487e+002, 3.002352e+004
2.663876e+002, 2.935954e+004
2.664266e+002, 2.942191e+004
2.664655e+002, 2.978710e+004
2.665044e+002, 2.977567e+004
2.665433e+002, 2.951411e+004
2.665822e+002, 2.955229e+004
2.666212e+002, 2.947755e+004
2.666601e+002, 2.947755e+004
2.666990e+002, 2.947755e+004
2.667379e+002, 2.947755e+004
2.667769e+002, 2.947755e+004
2.668158e+002, 2.947755e+004
#ENDOFDATA   : End Of Data and File