#FORMAT	     : EMSA/MAS Spectral Data File
#VERSION     : 1.0
#TITLE       : SM100 175eV 60x0,5s
#DATE        : 
#TIME        : 
#OWNER       : Michael Entrup
#NPOINTS     : 2048
#NCOLUMNS    : 1
#XUNITS      : eV
#YUNITS      : e-
#DATATYPE    : XY
#XPERCHAN    : 1.321586e-001
#OFFSET      : 3.966960e+001
#SIGNALTYPE  : ELS
#BEAMKV      : 200000.000000
#MAGCAM      : 125000.000000
#EMISSION    : 0.000000
#PROBECUR    : 0.000000
#BEAMDIAM    : 0.000000
#SPECTRUM    : Spectral Data Starts Here
3.966960e+001, 2.435974e+006
3.980176e+001, 2.435974e+006
3.993392e+001, 2.436331e+006
4.006608e+001, 2.436685e+006
4.019823e+001, 2.440789e+006
4.033039e+001, 2.437074e+006
4.046255e+001, 2.430484e+006
4.059471e+001, 2.423356e+006
4.072687e+001, 2.401699e+006
4.085903e+001, 2.378003e+006
4.099119e+001, 2.367824e+006
4.112334e+001, 2.360389e+006
4.125550e+001, 2.343713e+006
4.138766e+001, 2.332618e+006
4.151982e+001, 2.329521e+006
4.165198e+001, 2.325518e+006
4.178414e+001, 2.312224e+006
4.191630e+001, 2.301363e+006
4.204845e+001, 2.297911e+006
4.218061e+001, 2.292166e+006
4.231277e+001, 2.284439e+006
4.244493e+001, 2.278617e+006
4.257709e+001, 2.278582e+006
4.270925e+001, 2.282437e+006
4.284141e+001, 2.282078e+006
4.297357e+001, 2.276803e+006
4.310572e+001, 2.273284e+006
4.323788e+001, 2.276708e+006
4.337004e+001, 2.278181e+006
4.350220e+001, 2.277413e+006
4.363436e+001, 2.280299e+006
4.376652e+001, 2.285801e+006
4.389868e+001, 2.281101e+006
4.403083e+001, 2.271323e+006
4.416299e+001, 2.269996e+006
4.429515e+001, 2.274395e+006
4.442731e+001, 2.274992e+006
4.455947e+001, 2.271306e+006
4.469163e+001, 2.269069e+006
4.482379e+001, 2.266296e+006
4.495594e+001, 2.261409e+006
4.508810e+001, 2.253614e+006
4.522026e+001, 2.248823e+006
4.535242e+001, 2.246415e+006
4.548458e+001, 2.242621e+006
4.561674e+001, 2.234804e+006
4.574890e+001, 2.229772e+006
4.588105e+001, 2.228158e+006
4.601321e+001, 2.223549e+006
4.614537e+001, 2.216744e+006
4.627753e+001, 2.215257e+006
4.640969e+001, 2.213065e+006
4.654185e+001, 2.208234e+006
4.667401e+001, 2.199030e+006
4.680616e+001, 2.191727e+006
4.693832e+001, 2.187566e+006
4.707048e+001, 2.185667e+006
4.720264e+001, 2.184484e+006
4.733480e+001, 2.183411e+006
4.746696e+001, 2.177573e+006
4.759912e+001, 2.173047e+006
4.773128e+001, 2.166609e+006
4.786343e+001, 2.162697e+006
4.799559e+001, 2.160648e+006
4.812775e+001, 2.156160e+006
4.825991e+001, 2.149875e+006
4.839207e+001, 2.147755e+006
4.852423e+001, 2.141219e+006
4.865639e+001, 2.137288e+006
4.878854e+001, 2.129873e+006
4.892070e+001, 2.123757e+006
4.905286e+001, 2.110834e+006
4.918502e+001, 2.098435e+006
4.931718e+001, 2.089498e+006
4.944934e+001, 2.076507e+006
4.958150e+001, 2.065251e+006
4.971365e+001, 2.052715e+006
4.984581e+001, 2.037124e+006
4.997797e+001, 2.026510e+006
5.011013e+001, 2.018601e+006
5.024229e+001, 2.013399e+006
5.037445e+001, 2.005307e+006
5.050661e+001, 1.994260e+006
5.063876e+001, 1.985577e+006
5.077092e+001, 1.972624e+006
5.090308e+001, 1.958602e+006
5.103524e+001, 1.950500e+006
5.116740e+001, 1.940723e+006
5.129956e+001, 1.931531e+006
5.143172e+001, 1.922147e+006
5.156387e+001, 1.914051e+006
5.169603e+001, 1.904949e+006
5.182819e+001, 1.901053e+006
5.196035e+001, 1.899979e+006
5.209251e+001, 1.900138e+006
5.222467e+001, 1.900870e+006
5.235683e+001, 1.901540e+006
5.248898e+001, 1.900173e+006
5.262114e+001, 1.899563e+006
5.275330e+001, 1.905745e+006
5.288546e+001, 1.912936e+006
5.301762e+001, 1.917567e+006
5.314978e+001, 1.921482e+006
5.328194e+001, 1.923165e+006
5.341409e+001, 1.925701e+006
5.354625e+001, 1.931242e+006
5.367841e+001, 1.932355e+006
5.381057e+001, 1.933140e+006
5.394273e+001, 1.937566e+006
5.407489e+001, 1.941365e+006
5.420705e+001, 1.947977e+006
5.433920e+001, 1.952378e+006
5.447136e+001, 1.961954e+006
5.460352e+001, 1.972094e+006
5.473568e+001, 1.980021e+006
5.486784e+001, 1.989551e+006
5.500000e+001, 2.000381e+006
5.513216e+001, 2.007562e+006
5.526432e+001, 2.014442e+006
5.539647e+001, 2.026814e+006
5.552863e+001, 2.041103e+006
5.566079e+001, 2.058977e+006
5.579295e+001, 2.076153e+006
5.592511e+001, 2.095719e+006
5.605727e+001, 2.114330e+006
5.618943e+001, 2.136514e+006
5.632159e+001, 2.154737e+006
5.645374e+001, 2.166689e+006
5.658590e+001, 2.178137e+006
5.671806e+001, 2.187419e+006
5.685022e+001, 2.197463e+006
5.698238e+001, 2.204783e+006
5.711454e+001, 2.214287e+006
5.724670e+001, 2.218888e+006
5.737885e+001, 2.216035e+006
5.751101e+001, 2.205012e+006
5.764317e+001, 2.188651e+006
5.777533e+001, 2.174057e+006
5.790749e+001, 2.164519e+006
5.803965e+001, 2.154832e+006
5.817181e+001, 2.137049e+006
5.830396e+001, 2.116534e+006
5.843612e+001, 2.096044e+006
5.856828e+001, 2.076590e+006
5.870044e+001, 2.061036e+006
5.883260e+001, 2.046293e+006
5.896476e+001, 2.030732e+006
5.909692e+001, 2.013957e+006
5.922907e+001, 1.994899e+006
5.936123e+001, 1.978724e+006
5.949339e+001, 1.965180e+006
5.962555e+001, 1.955048e+006
5.975771e+001, 1.943074e+006
5.988987e+001, 1.928207e+006
6.002203e+001, 1.908319e+006
6.015418e+001, 1.888795e+006
6.028634e+001, 1.874378e+006
6.041850e+001, 1.864302e+006
6.055066e+001, 1.855994e+006
6.068282e+001, 1.843875e+006
6.081498e+001, 1.828525e+006
6.094714e+001, 1.811299e+006
6.107929e+001, 1.796143e+006
6.121145e+001, 1.786594e+006
6.134361e+001, 1.777685e+006
6.147577e+001, 1.768606e+006
6.160793e+001, 1.754688e+006
6.174009e+001, 1.738374e+006
6.187225e+001, 1.729797e+006
6.200440e+001, 1.722734e+006
6.213656e+001, 1.712207e+006
6.226872e+001, 1.702033e+006
6.240088e+001, 1.690009e+006
6.253304e+001, 1.683079e+006
6.266520e+001, 1.677967e+006
6.279736e+001, 1.664446e+006
6.292951e+001, 1.652176e+006
6.306167e+001, 1.642149e+006
6.319383e+001, 1.632940e+006
6.332599e+001, 1.623869e+006
6.345815e+001, 1.615806e+006
6.359031e+001, 1.609736e+006
6.372247e+001, 1.599836e+006
6.385462e+001, 1.590636e+006
6.398678e+001, 1.583100e+006
6.411894e+001, 1.570869e+006
6.425110e+001, 1.562578e+006
6.438326e+001, 1.555120e+006
6.451542e+001, 1.552090e+006
6.464758e+001, 1.546541e+006
6.477973e+001, 1.536117e+006
6.491190e+001, 1.527309e+006
6.504405e+001, 1.523134e+006
6.517621e+001, 1.515223e+006
6.530836e+001, 1.504220e+006
6.544053e+001, 1.495576e+006
6.557269e+001, 1.487816e+006
6.570484e+001, 1.476984e+006
6.583701e+001, 1.467556e+006
6.596916e+001, 1.461666e+006
6.610132e+001, 1.456351e+006
6.623347e+001, 1.450376e+006
6.636564e+001, 1.441703e+006
6.649780e+001, 1.439608e+006
6.662995e+001, 1.434178e+006
6.676212e+001, 1.424973e+006
6.689427e+001, 1.417643e+006
6.702643e+001, 1.412219e+006
6.715858e+001, 1.405596e+006
6.729075e+001, 1.396129e+006
6.742290e+001, 1.386747e+006
6.755507e+001, 1.383155e+006
6.768723e+001, 1.379923e+006
6.781938e+001, 1.376352e+006
6.795154e+001, 1.368002e+006
6.808369e+001, 1.358042e+006
6.821586e+001, 1.351036e+006
6.834801e+001, 1.347841e+006
6.848018e+001, 1.342303e+006
6.861234e+001, 1.335843e+006
6.874449e+001, 1.328769e+006
6.887665e+001, 1.324389e+006
6.900880e+001, 1.320068e+006
6.914097e+001, 1.310424e+006
6.927312e+001, 1.303371e+006
6.940529e+001, 1.296178e+006
6.953745e+001, 1.288508e+006
6.966960e+001, 1.284296e+006
6.980176e+001, 1.282698e+006
6.993392e+001, 1.278761e+006
7.006608e+001, 1.273134e+006
7.019823e+001, 1.267943e+006
7.033040e+001, 1.263126e+006
7.046255e+001, 1.257064e+006
7.059471e+001, 1.253880e+006
7.072687e+001, 1.248457e+006
7.085903e+001, 1.243294e+006
7.099119e+001, 1.236517e+006
7.112334e+001, 1.231637e+006
7.125551e+001, 1.226685e+006
7.138766e+001, 1.221919e+006
7.151982e+001, 1.217537e+006
7.165198e+001, 1.213099e+006
7.178413e+001, 1.208440e+006
7.191630e+001, 1.201675e+006
7.204846e+001, 1.193137e+006
7.218062e+001, 1.186062e+006
7.231277e+001, 1.179148e+006
7.244493e+001, 1.174271e+006
7.257709e+001, 1.169570e+006
7.270925e+001, 1.164120e+006
7.284141e+001, 1.161474e+006
7.297357e+001, 1.157955e+006
7.310573e+001, 1.154602e+006
7.323788e+001, 1.152588e+006
7.337004e+001, 1.146111e+006
7.350220e+001, 1.142025e+006
7.363436e+001, 1.138757e+006
7.376652e+001, 1.134109e+006
7.389868e+001, 1.127752e+006
7.403084e+001, 1.120647e+006
7.416299e+001, 1.111947e+006
7.429515e+001, 1.106780e+006
7.442731e+001, 1.101286e+006
7.455947e+001, 1.097851e+006
7.469163e+001, 1.095494e+006
7.482379e+001, 1.091261e+006
7.495595e+001, 1.087170e+006
7.508810e+001, 1.081802e+006
7.522026e+001, 1.081046e+006
7.535242e+001, 1.078320e+006
7.548458e+001, 1.073336e+006
7.561674e+001, 1.068415e+006
7.574890e+001, 1.062672e+006
7.588106e+001, 1.057114e+006
7.601321e+001, 1.051673e+006
7.614537e+001, 1.047794e+006
7.627753e+001, 1.043936e+006
7.640969e+001, 1.039055e+006
7.654185e+001, 1.032784e+006
7.667401e+001, 1.028136e+006
7.680617e+001, 1.024267e+006
7.693832e+001, 1.021330e+006
7.707048e+001, 1.017394e+006
7.720264e+001, 1.011565e+006
7.733480e+001, 1.006964e+006
7.746696e+001, 1.003978e+006
7.759912e+001, 1.001057e+006
7.773128e+001, 9.976878e+005
7.786343e+001, 9.930395e+005
7.799559e+001, 9.893989e+005
7.812775e+001, 9.876726e+005
7.825991e+001, 9.850071e+005
7.839207e+001, 9.813454e+005
7.852423e+001, 9.752309e+005
7.865639e+001, 9.684861e+005
7.878854e+001, 9.644035e+005
7.892070e+001, 9.607479e+005
7.905286e+001, 9.572008e+005
7.918502e+001, 9.543558e+005
7.931718e+001, 9.510084e+005
7.944934e+001, 9.485566e+005
7.958150e+001, 9.448548e+005
7.971365e+001, 9.408116e+005
7.984581e+001, 9.396870e+005
7.997797e+001, 9.403506e+005
8.011013e+001, 9.373648e+005
8.024229e+001, 9.325903e+005
8.037445e+001, 9.275015e+005
8.050661e+001, 9.208469e+005
8.063876e+001, 9.181605e+005
8.077092e+001, 9.140906e+005
8.090308e+001, 9.127073e+005
8.103524e+001, 9.108498e+005
8.116740e+001, 9.075286e+005
8.129956e+001, 9.047111e+005
8.143172e+001, 9.013711e+005
8.156387e+001, 8.959715e+005
8.169603e+001, 8.909668e+005
8.182819e+001, 8.873464e+005
8.196035e+001, 8.836583e+005
8.209251e+001, 8.792576e+005
8.222467e+001, 8.774206e+005
8.235683e+001, 8.744733e+005
8.248898e+001, 8.737546e+005
8.262114e+001, 8.709087e+005
8.275330e+001, 8.663178e+005
8.288546e+001, 8.606939e+005
8.301762e+001, 8.578313e+005
8.314978e+001, 8.568537e+005
8.328194e+001, 8.546291e+005
8.341409e+001, 8.516596e+005
8.354625e+001, 8.475693e+005
8.367841e+001, 8.450599e+005
8.381057e+001, 8.434963e+005
8.394273e+001, 8.386210e+005
8.407489e+001, 8.359740e+005
8.420705e+001, 8.317628e+005
8.433920e+001, 8.289353e+005
8.447136e+001, 8.271359e+005
8.460352e+001, 8.250718e+005
8.473568e+001, 8.218186e+005
8.486784e+001, 8.180790e+005
8.500000e+001, 8.156287e+005
8.513216e+001, 8.121632e+005
8.526431e+001, 8.081091e+005
8.539647e+001, 8.078285e+005
8.552863e+001, 8.039842e+005
8.566080e+001, 8.024409e+005
8.579295e+001, 7.985088e+005
8.592511e+001, 7.957191e+005
8.605727e+001, 7.928379e+005
8.618942e+001, 7.922994e+005
8.632158e+001, 7.898649e+005
8.645374e+001, 7.839869e+005
8.658591e+001, 7.795707e+005
8.671806e+001, 7.771649e+005
8.685022e+001, 7.725864e+005
8.698238e+001, 7.693245e+005
8.711453e+001, 7.684181e+005
8.724670e+001, 7.656006e+005
8.737885e+001, 7.629978e+005
8.751102e+001, 7.609983e+005
8.764317e+001, 7.576433e+005
8.777533e+001, 7.549033e+005
8.790749e+001, 7.545718e+005
8.803964e+001, 7.529194e+005
8.817181e+001, 7.488447e+005
8.830396e+001, 7.438628e+005
8.843613e+001, 7.401637e+005
8.856828e+001, 7.378650e+005
8.870044e+001, 7.364903e+005
8.883260e+001, 7.349928e+005
8.896475e+001, 7.330473e+005
8.909692e+001, 7.306718e+005
8.922907e+001, 7.273569e+005
8.936124e+001, 7.239082e+005
8.949339e+001, 7.221651e+005
8.962555e+001, 7.226077e+005
8.975771e+001, 7.216806e+005
8.988986e+001, 7.196567e+005
9.002203e+001, 7.182783e+005
9.015418e+001, 7.157608e+005
9.028635e+001, 7.123889e+005
9.041850e+001, 7.088449e+005
9.055066e+001, 7.058495e+005
9.068282e+001, 7.027416e+005
9.081497e+001, 7.007655e+005
9.094714e+001, 6.976075e+005
9.107929e+001, 6.951850e+005
9.121146e+001, 6.952093e+005
9.134361e+001, 6.957741e+005
9.147577e+001, 6.944760e+005
9.160793e+001, 6.923425e+005
9.174008e+001, 6.910335e+005
9.187225e+001, 6.894946e+005
9.200440e+001, 6.849101e+005
9.213657e+001, 6.807516e+005
9.226872e+001, 6.765704e+005
9.240088e+001, 6.742276e+005
9.253304e+001, 6.741019e+005
9.266519e+001, 6.745319e+005
9.279736e+001, 6.722074e+005
9.292952e+001, 6.694504e+005
9.306168e+001, 6.663535e+005
9.319383e+001, 6.619336e+005
9.332599e+001, 6.608149e+005
9.345815e+001, 6.580771e+005
9.359030e+001, 6.545753e+005
9.372247e+001, 6.524162e+005
9.385463e+001, 6.525338e+005
9.398679e+001, 6.505567e+005
9.411894e+001, 6.471573e+005
9.425110e+001, 6.450341e+005
9.438326e+001, 6.409373e+005
9.451542e+001, 6.375016e+005
9.464758e+001, 6.365900e+005
9.477974e+001, 6.346543e+005
9.491190e+001, 6.318461e+005
9.504405e+001, 6.291139e+005
9.517621e+001, 6.281285e+005
9.530836e+001, 6.264823e+005
9.544053e+001, 6.246572e+005
9.557269e+001, 6.228587e+005
9.570485e+001, 6.198351e+005
9.583701e+001, 6.143803e+005
9.596916e+001, 6.114890e+005
9.610132e+001, 6.100926e+005
9.623347e+001, 6.085136e+005
9.636564e+001, 6.060566e+005
9.649780e+001, 6.033051e+005
9.662996e+001, 6.004461e+005
9.676212e+001, 5.979593e+005
9.689427e+001, 5.970721e+005
9.702643e+001, 5.939959e+005
9.715858e+001, 5.923598e+005
9.729075e+001, 5.903737e+005
9.742290e+001, 5.865569e+005
9.755507e+001, 5.839449e+005
9.768723e+001, 5.809746e+005
9.781938e+001, 5.804338e+005
9.795154e+001, 5.772002e+005
9.808369e+001, 5.735916e+005
9.821586e+001, 5.711954e+005
9.834801e+001, 5.695689e+005
9.848018e+001, 5.687992e+005
9.861234e+001, 5.668209e+005
9.874449e+001, 5.641759e+005
9.887665e+001, 5.618169e+005
9.900880e+001, 5.607354e+005
9.914097e+001, 5.598112e+005
9.927312e+001, 5.573614e+005
9.940529e+001, 5.556721e+005
9.953745e+001, 5.527740e+005
9.966960e+001, 5.497058e+005
9.980176e+001, 5.462938e+005
9.993391e+001, 5.441288e+005
1.000661e+002, 5.416581e+005
1.001982e+002, 5.399291e+005
1.003304e+002, 5.381694e+005
1.004626e+002, 5.367355e+005
1.005947e+002, 5.340681e+005
1.007269e+002, 5.333134e+005
1.008590e+002, 5.323961e+005
1.009912e+002, 5.289401e+005
1.011234e+002, 5.260906e+005
1.012555e+002, 5.249282e+005
1.013877e+002, 5.223373e+005
1.015198e+002, 5.218428e+005
1.016520e+002, 5.180734e+005
1.017841e+002, 5.166781e+005
1.019163e+002, 5.155813e+005
1.020485e+002, 5.142362e+005
1.021806e+002, 5.119904e+005
1.023128e+002, 5.114049e+005
1.024449e+002, 5.115153e+005
1.025771e+002, 5.094729e+005
1.027093e+002, 5.070146e+005
1.028414e+002, 5.036834e+005
1.029736e+002, 5.007926e+005
1.031057e+002, 5.014464e+005
1.032379e+002, 5.012767e+005
1.033700e+002, 5.007131e+005
1.035022e+002, 4.978415e+005
1.036344e+002, 4.947641e+005
1.037665e+002, 4.928556e+005
1.038987e+002, 4.935709e+005
1.040308e+002, 4.931010e+005
1.041630e+002, 4.903321e+005
1.042952e+002, 4.887619e+005
1.044273e+002, 4.879208e+005
1.045595e+002, 4.872484e+005
1.046916e+002, 4.864063e+005
1.048238e+002, 4.869228e+005
1.049559e+002, 4.866509e+005
1.050881e+002, 4.851113e+005
1.052203e+002, 4.843403e+005
1.053524e+002, 4.831914e+005
1.054846e+002, 4.824640e+005
1.056167e+002, 4.813307e+005
1.057489e+002, 4.814780e+005
1.058811e+002, 4.799779e+005
1.060132e+002, 4.789980e+005
1.061454e+002, 4.771506e+005
1.062775e+002, 4.762260e+005
1.064097e+002, 4.760263e+005
1.065418e+002, 4.751590e+005
1.066740e+002, 4.753748e+005
1.068062e+002, 4.751400e+005
1.069383e+002, 4.741726e+005
1.070705e+002, 4.735904e+005
1.072026e+002, 4.734821e+005
1.073348e+002, 4.731089e+005
1.074670e+002, 4.720563e+005
1.075991e+002, 4.711953e+005
1.077313e+002, 4.702498e+005
1.078634e+002, 4.688271e+005
1.079956e+002, 4.675789e+005
1.081278e+002, 4.656955e+005
1.082599e+002, 4.639140e+005
1.083921e+002, 4.629057e+005
1.085242e+002, 4.622155e+005
1.086564e+002, 4.606979e+005
1.087885e+002, 4.591693e+005
1.089207e+002, 4.572501e+005
1.090529e+002, 4.553110e+005
1.091850e+002, 4.523436e+005
1.093172e+002, 4.503776e+005
1.094493e+002, 4.480483e+005
1.095815e+002, 4.460338e+005
1.097137e+002, 4.442155e+005
1.098458e+002, 4.423615e+005
1.099780e+002, 4.414450e+005
1.101101e+002, 4.400082e+005
1.102423e+002, 4.380773e+005
1.103745e+002, 4.369526e+005
1.105066e+002, 4.351151e+005
1.106388e+002, 4.337691e+005
1.107709e+002, 4.327362e+005
1.109031e+002, 4.317184e+005
1.110352e+002, 4.306904e+005
1.111674e+002, 4.289097e+005
1.112996e+002, 4.266373e+005
1.114317e+002, 4.253754e+005
1.115639e+002, 4.253063e+005
1.116960e+002, 4.246575e+005
1.118282e+002, 4.239856e+005
1.119604e+002, 4.225472e+005
1.120925e+002, 4.206960e+005
1.122247e+002, 4.203323e+005
1.123568e+002, 4.192096e+005
1.124890e+002, 4.168709e+005
1.126211e+002, 4.156389e+005
1.127533e+002, 4.149960e+005
1.128855e+002, 4.137239e+005
1.130176e+002, 4.117059e+005
1.131498e+002, 4.113341e+005
1.132819e+002, 4.119143e+005
1.134141e+002, 4.117888e+005
1.135463e+002, 4.102787e+005
1.136784e+002, 4.087874e+005
1.138106e+002, 4.075049e+005
1.139427e+002, 4.062368e+005
1.140749e+002, 4.052867e+005
1.142070e+002, 4.042667e+005
1.143392e+002, 4.021296e+005
1.144714e+002, 4.000609e+005
1.146035e+002, 4.004356e+005
1.147357e+002, 4.011890e+005
1.148678e+002, 4.011748e+005
1.150000e+002, 4.011329e+005
1.151322e+002, 3.997514e+005
1.152643e+002, 3.977509e+005
1.153965e+002, 3.984755e+005
1.155286e+002, 3.975359e+005
1.156608e+002, 3.960823e+005
1.157930e+002, 3.942087e+005
1.159251e+002, 3.936955e+005
1.160573e+002, 3.925452e+005
1.161894e+002, 3.911033e+005
1.163216e+002, 3.888863e+005
1.164537e+002, 3.878686e+005
1.165859e+002, 3.863757e+005
1.167181e+002, 3.853676e+005
1.168502e+002, 3.835525e+005
1.169824e+002, 3.826683e+005
1.171145e+002, 3.820088e+005
1.172467e+002, 3.806757e+005
1.173789e+002, 3.791639e+005
1.175110e+002, 3.762972e+005
1.176432e+002, 3.750969e+005
1.177753e+002, 3.737460e+005
1.179075e+002, 3.729676e+005
1.180396e+002, 3.721098e+005
1.181718e+002, 3.716758e+005
1.183040e+002, 3.713207e+005
1.184361e+002, 3.699078e+005
1.185683e+002, 3.676374e+005
1.187004e+002, 3.672110e+005
1.188326e+002, 3.662652e+005
1.189648e+002, 3.646738e+005
1.190969e+002, 3.647099e+005
1.192291e+002, 3.635052e+005
1.193612e+002, 3.620503e+005
1.194934e+002, 3.605091e+005
1.196255e+002, 3.603530e+005
1.197577e+002, 3.595630e+005
1.198899e+002, 3.582130e+005
1.200220e+002, 3.572873e+005
1.201542e+002, 3.555872e+005
1.202863e+002, 3.539810e+005
1.204185e+002, 3.537577e+005
1.205507e+002, 3.533632e+005
1.206828e+002, 3.517298e+005
1.208150e+002, 3.500779e+005
1.209471e+002, 3.490983e+005
1.210793e+002, 3.488644e+005
1.212115e+002, 3.478916e+005
1.213436e+002, 3.477890e+005
1.214758e+002, 3.473203e+005
1.216079e+002, 3.464473e+005
1.217401e+002, 3.443627e+005
1.218722e+002, 3.435607e+005
1.220044e+002, 3.430354e+005
1.221366e+002, 3.417100e+005
1.222687e+002, 3.401542e+005
1.224009e+002, 3.388677e+005
1.225330e+002, 3.383098e+005
1.226652e+002, 3.381485e+005
1.227974e+002, 3.386020e+005
1.229295e+002, 3.373185e+005
1.230617e+002, 3.370420e+005
1.231938e+002, 3.371051e+005
1.233260e+002, 3.371550e+005
1.234582e+002, 3.360638e+005
1.235903e+002, 3.346763e+005
1.237225e+002, 3.340467e+005
1.238546e+002, 3.323314e+005
1.239868e+002, 3.307662e+005
1.241189e+002, 3.300773e+005
1.242511e+002, 3.289661e+005
1.243833e+002, 3.292665e+005
1.245154e+002, 3.296102e+005
1.246476e+002, 3.293561e+005
1.247797e+002, 3.282466e+005
1.249119e+002, 3.273383e+005
1.250441e+002, 3.277644e+005
1.251762e+002, 3.267712e+005
1.253084e+002, 3.251224e+005
1.254405e+002, 3.230308e+005
1.255727e+002, 3.212198e+005
1.257048e+002, 3.211575e+005
1.258370e+002, 3.203069e+005
1.259692e+002, 3.208105e+005
1.261013e+002, 3.193430e+005
1.262335e+002, 3.187025e+005
1.263656e+002, 3.184549e+005
1.264978e+002, 3.165073e+005
1.266300e+002, 3.158895e+005
1.267621e+002, 3.143882e+005
1.268943e+002, 3.135637e+005
1.270264e+002, 3.128717e+005
1.271586e+002, 3.126372e+005
1.272907e+002, 3.121738e+005
1.274229e+002, 3.118981e+005
1.275551e+002, 3.117897e+005
1.276872e+002, 3.110873e+005
1.278194e+002, 3.099248e+005
1.279515e+002, 3.098077e+005
1.280837e+002, 3.097904e+005
1.282159e+002, 3.089689e+005
1.283480e+002, 3.084357e+005
1.284802e+002, 3.078178e+005
1.286123e+002, 3.077840e+005
1.287445e+002, 3.071553e+005
1.288766e+002, 3.045630e+005
1.290088e+002, 3.026579e+005
1.291410e+002, 3.026712e+005
1.292731e+002, 3.023243e+005
1.294053e+002, 3.014553e+005
1.295374e+002, 3.007858e+005
1.296696e+002, 2.991122e+005
1.298018e+002, 2.979268e+005
1.299339e+002, 2.964869e+005
1.300661e+002, 2.953508e+005
1.301982e+002, 2.953875e+005
1.303304e+002, 2.947525e+005
1.304626e+002, 2.935453e+005
1.305947e+002, 2.927875e+005
1.307269e+002, 2.923591e+005
1.308590e+002, 2.916063e+005
1.309912e+002, 2.912006e+005
1.311234e+002, 2.896953e+005
1.312555e+002, 2.883516e+005
1.313877e+002, 2.878840e+005
1.315198e+002, 2.864416e+005
1.316520e+002, 2.857826e+005
1.317841e+002, 2.862958e+005
1.319163e+002, 2.851919e+005
1.320485e+002, 2.852962e+005
1.321806e+002, 2.842156e+005
1.323128e+002, 2.815010e+005
1.324449e+002, 2.801159e+005
1.325771e+002, 2.799520e+005
1.327093e+002, 2.802493e+005
1.328414e+002, 2.793099e+005
1.329736e+002, 2.786927e+005
1.331057e+002, 2.780881e+005
1.332379e+002, 2.768948e+005
1.333700e+002, 2.758779e+005
1.335022e+002, 2.747441e+005
1.336344e+002, 2.748714e+005
1.337665e+002, 2.743721e+005
1.338987e+002, 2.732387e+005
1.340308e+002, 2.718437e+005
1.341630e+002, 2.709429e+005
1.342952e+002, 2.709406e+005
1.344273e+002, 2.699133e+005
1.345595e+002, 2.694843e+005
1.346916e+002, 2.696279e+005
1.348238e+002, 2.691416e+005
1.349559e+002, 2.686980e+005
1.350881e+002, 2.683635e+005
1.352203e+002, 2.668601e+005
1.353524e+002, 2.649488e+005
1.354846e+002, 2.648189e+005
1.356167e+002, 2.643175e+005
1.357489e+002, 2.623897e+005
1.358811e+002, 2.613520e+005
1.360132e+002, 2.606847e+005
1.361454e+002, 2.595852e+005
1.362775e+002, 2.576929e+005
1.364097e+002, 2.571349e+005
1.365418e+002, 2.570790e+005
1.366740e+002, 2.571378e+005
1.368062e+002, 2.567533e+005
1.369383e+002, 2.557875e+005
1.370705e+002, 2.558673e+005
1.372026e+002, 2.548785e+005
1.373348e+002, 2.544851e+005
1.374669e+002, 2.533170e+005
1.375991e+002, 2.526213e+005
1.377313e+002, 2.522073e+005
1.378634e+002, 2.508418e+005
1.379956e+002, 2.497672e+005
1.381277e+002, 2.492906e+005
1.382599e+002, 2.492060e+005
1.383921e+002, 2.486735e+005
1.385242e+002, 2.472490e+005
1.386564e+002, 2.466210e+005
1.387885e+002, 2.455966e+005
1.389207e+002, 2.451678e+005
1.390529e+002, 2.435179e+005
1.391850e+002, 2.420221e+005
1.393172e+002, 2.412689e+005
1.394493e+002, 2.414118e+005
1.395815e+002, 2.413454e+005
1.397137e+002, 2.407873e+005
1.398458e+002, 2.393266e+005
1.399780e+002, 2.391090e+005
1.401101e+002, 2.389826e+005
1.402423e+002, 2.375085e+005
1.403745e+002, 2.374077e+005
1.405066e+002, 2.371845e+005
1.406388e+002, 2.358282e+005
1.407709e+002, 2.352208e+005
1.409031e+002, 2.343823e+005
1.410352e+002, 2.336757e+005
1.411674e+002, 2.330845e+005
1.412996e+002, 2.328105e+005
1.414317e+002, 2.324059e+005
1.415639e+002, 2.321839e+005
1.416960e+002, 2.317026e+005
1.418282e+002, 2.312296e+005
1.419604e+002, 2.300942e+005
1.420925e+002, 2.288556e+005
1.422247e+002, 2.279335e+005
1.423568e+002, 2.268126e+005
1.424890e+002, 2.262817e+005
1.426212e+002, 2.254078e+005
1.427533e+002, 2.246104e+005
1.428855e+002, 2.246309e+005
1.430176e+002, 2.243164e+005
1.431498e+002, 2.236230e+005
1.432819e+002, 2.227809e+005
1.434141e+002, 2.231505e+005
1.435463e+002, 2.223339e+005
1.436784e+002, 2.212151e+005
1.438106e+002, 2.212999e+005
1.439427e+002, 2.212910e+005
1.440749e+002, 2.200935e+005
1.442070e+002, 2.188909e+005
1.443392e+002, 2.179183e+005
1.444714e+002, 2.180805e+005
1.446035e+002, 2.181265e+005
1.447357e+002, 2.173146e+005
1.448678e+002, 2.156980e+005
1.450000e+002, 2.144226e+005
1.451322e+002, 2.143436e+005
1.452643e+002, 2.141832e+005
1.453965e+002, 2.135486e+005
1.455286e+002, 2.126311e+005
1.456608e+002, 2.132894e+005
1.457930e+002, 2.125128e+005
1.459251e+002, 2.116988e+005
1.460573e+002, 2.113505e+005
1.461894e+002, 2.110399e+005
1.463216e+002, 2.097914e+005
1.464537e+002, 2.094229e+005
1.465859e+002, 2.087622e+005
1.467181e+002, 2.074376e+005
1.468502e+002, 2.066940e+005
1.469824e+002, 2.069965e+005
1.471145e+002, 2.064361e+005
1.472467e+002, 2.057368e+005
1.473788e+002, 2.047878e+005
1.475110e+002, 2.037740e+005
1.476432e+002, 2.035391e+005
1.477753e+002, 2.038201e+005
1.479075e+002, 2.030391e+005
1.480396e+002, 2.025853e+005
1.481718e+002, 2.029943e+005
1.483040e+002, 2.033350e+005
1.484361e+002, 2.034307e+005
1.485683e+002, 2.027883e+005
1.487004e+002, 2.019167e+005
1.488326e+002, 1.999683e+005
1.489648e+002, 1.992188e+005
1.490969e+002, 1.998822e+005
1.492291e+002, 1.992828e+005
1.493612e+002, 1.979216e+005
1.494934e+002, 1.972955e+005
1.496255e+002, 1.967507e+005
1.497577e+002, 1.962012e+005
1.498899e+002, 1.964935e+005
1.500220e+002, 1.959502e+005
1.501542e+002, 1.951337e+005
1.502863e+002, 1.939186e+005
1.504185e+002, 1.932645e+005
1.505507e+002, 1.925908e+005
1.506828e+002, 1.932572e+005
1.508150e+002, 1.927765e+005
1.509471e+002, 1.913802e+005
1.510793e+002, 1.915667e+005
1.512115e+002, 1.917639e+005
1.513436e+002, 1.912141e+005
1.514758e+002, 1.909698e+005
1.516079e+002, 1.908716e+005
1.517401e+002, 1.902277e+005
1.518723e+002, 1.893793e+005
1.520044e+002, 1.877984e+005
1.521366e+002, 1.877043e+005
1.522687e+002, 1.872237e+005
1.524009e+002, 1.858978e+005
1.525331e+002, 1.857660e+005
1.526652e+002, 1.851657e+005
1.527974e+002, 1.852606e+005
1.529295e+002, 1.852918e+005
1.530617e+002, 1.846050e+005
1.531938e+002, 1.837693e+005
1.533260e+002, 1.835615e+005
1.534582e+002, 1.832843e+005
1.535903e+002, 1.826606e+005
1.537225e+002, 1.823958e+005
1.538546e+002, 1.817885e+005
1.539868e+002, 1.812199e+005
1.541189e+002, 1.811776e+005
1.542511e+002, 1.812569e+005
1.543833e+002, 1.801549e+005
1.545154e+002, 1.799090e+005
1.546476e+002, 1.802702e+005
1.547797e+002, 1.800509e+005
1.549119e+002, 1.786538e+005
1.550441e+002, 1.777648e+005
1.551762e+002, 1.775402e+005
1.553084e+002, 1.778309e+005
1.554405e+002, 1.765444e+005
1.555727e+002, 1.759452e+005
1.557048e+002, 1.761164e+005
1.558370e+002, 1.765479e+005
1.559692e+002, 1.761753e+005
1.561013e+002, 1.756353e+005
1.562335e+002, 1.748868e+005
1.563656e+002, 1.744186e+005
1.564978e+002, 1.737363e+005
1.566300e+002, 1.735128e+005
1.567621e+002, 1.739493e+005
1.568943e+002, 1.744543e+005
1.570264e+002, 1.731621e+005
1.571586e+002, 1.729102e+005
1.572907e+002, 1.723731e+005
1.574229e+002, 1.727640e+005
1.575551e+002, 1.723676e+005
1.576872e+002, 1.720605e+005
1.578194e+002, 1.716543e+005
1.579515e+002, 1.709840e+005
1.580837e+002, 1.705614e+005
1.582159e+002, 1.703780e+005
1.583480e+002, 1.701642e+005
1.584802e+002, 1.693878e+005
1.586123e+002, 1.689024e+005
1.587445e+002, 1.685018e+005
1.588766e+002, 1.682171e+005
1.590088e+002, 1.670812e+005
1.591410e+002, 1.668107e+005
1.592731e+002, 1.662001e+005
1.594053e+002, 1.654569e+005
1.595374e+002, 1.654842e+005
1.596696e+002, 1.654654e+005
1.598018e+002, 1.644231e+005
1.599339e+002, 1.638718e+005
1.600661e+002, 1.625378e+005
1.601982e+002, 1.627172e+005
1.603304e+002, 1.625075e+005
1.604626e+002, 1.616776e+005
1.605947e+002, 1.611577e+005
1.607269e+002, 1.614673e+005
1.608590e+002, 1.607203e+005
1.609912e+002, 1.604866e+005
1.611234e+002, 1.598117e+005
1.612555e+002, 1.598760e+005
1.613877e+002, 1.597277e+005
1.615198e+002, 1.591048e+005
1.616520e+002, 1.590368e+005
1.617841e+002, 1.589506e+005
1.619163e+002, 1.585413e+005
1.620485e+002, 1.579870e+005
1.621806e+002, 1.575827e+005
1.623128e+002, 1.569425e+005
1.624449e+002, 1.557114e+005
1.625771e+002, 1.555258e+005
1.627093e+002, 1.551285e+005
1.628414e+002, 1.546643e+005
1.629736e+002, 1.545838e+005
1.631057e+002, 1.540158e+005
1.632379e+002, 1.542436e+005
1.633700e+002, 1.540293e+005
1.635022e+002, 1.537392e+005
1.636344e+002, 1.529007e+005
1.637665e+002, 1.519227e+005
1.638987e+002, 1.514959e+005
1.640308e+002, 1.513570e+005
1.641630e+002, 1.512015e+005
1.642952e+002, 1.508244e+005
1.644273e+002, 1.501201e+005
1.645595e+002, 1.495526e+005
1.646916e+002, 1.494253e+005
1.648238e+002, 1.498317e+005
1.649559e+002, 1.499114e+005
1.650881e+002, 1.498069e+005
1.652203e+002, 1.492766e+005
1.653524e+002, 1.486298e+005
1.654846e+002, 1.485110e+005
1.656167e+002, 1.489943e+005
1.657489e+002, 1.485773e+005
1.658811e+002, 1.480858e+005
1.660132e+002, 1.474232e+005
1.661454e+002, 1.473708e+005
1.662775e+002, 1.463932e+005
1.664097e+002, 1.459355e+005
1.665418e+002, 1.450965e+005
1.666740e+002, 1.444790e+005
1.668062e+002, 1.441802e+005
1.669383e+002, 1.440240e+005
1.670705e+002, 1.432118e+005
1.672026e+002, 1.433275e+005
1.673348e+002, 1.430409e+005
1.674669e+002, 1.427368e+005
1.675991e+002, 1.417993e+005
1.677313e+002, 1.414746e+005
1.678634e+002, 1.419604e+005
1.679956e+002, 1.423098e+005
1.681277e+002, 1.418060e+005
1.682599e+002, 1.416783e+005
1.683921e+002, 1.415243e+005
1.685242e+002, 1.408302e+005
1.686564e+002, 1.395649e+005
1.687885e+002, 1.395128e+005
1.689207e+002, 1.392531e+005
1.690529e+002, 1.387920e+005
1.691850e+002, 1.385047e+005
1.693172e+002, 1.383584e+005
1.694493e+002, 1.379602e+005
1.695815e+002, 1.379390e+005
1.697137e+002, 1.381810e+005
1.698458e+002, 1.380642e+005
1.699780e+002, 1.374072e+005
1.701101e+002, 1.371623e+005
1.702423e+002, 1.369043e+005
1.703745e+002, 1.362889e+005
1.705066e+002, 1.362315e+005
1.706388e+002, 1.356144e+005
1.707709e+002, 1.350729e+005
1.709031e+002, 1.349589e+005
1.710352e+002, 1.344047e+005
1.711674e+002, 1.334397e+005
1.712996e+002, 1.329206e+005
1.714317e+002, 1.325751e+005
1.715639e+002, 1.322804e+005
1.716960e+002, 1.322874e+005
1.718282e+002, 1.322175e+005
1.719604e+002, 1.325987e+005
1.720925e+002, 1.320729e+005
1.722247e+002, 1.310600e+005
1.723568e+002, 1.310453e+005
1.724890e+002, 1.313378e+005
1.726211e+002, 1.312574e+005
1.727533e+002, 1.313356e+005
1.728855e+002, 1.306273e+005
1.730176e+002, 1.296509e+005
1.731498e+002, 1.288174e+005
1.732819e+002, 1.285290e+005
1.734141e+002, 1.285246e+005
1.735462e+002, 1.285141e+005
1.736784e+002, 1.283429e+005
1.738106e+002, 1.282959e+005
1.739427e+002, 1.283026e+005
1.740749e+002, 1.272292e+005
1.742070e+002, 1.268413e+005
1.743392e+002, 1.265393e+005
1.744714e+002, 1.259466e+005
1.746035e+002, 1.259812e+005
1.747357e+002, 1.266122e+005
1.748678e+002, 1.265281e+005
1.750000e+002, 1.261233e+005
1.751322e+002, 1.252752e+005
1.752643e+002, 1.254679e+005
1.753965e+002, 1.251092e+005
1.755286e+002, 1.247511e+005
1.756608e+002, 1.245407e+005
1.757930e+002, 1.248724e+005
1.759251e+002, 1.246516e+005
1.760573e+002, 1.246511e+005
1.761894e+002, 1.242370e+005
1.763216e+002, 1.235437e+005
1.764538e+002, 1.231293e+005
1.765859e+002, 1.228448e+005
1.767181e+002, 1.231457e+005
1.768502e+002, 1.229891e+005
1.769824e+002, 1.220751e+005
1.771145e+002, 1.216163e+005
1.772467e+002, 1.213439e+005
1.773789e+002, 1.211289e+005
1.775110e+002, 1.207761e+005
1.776432e+002, 1.201096e+005
1.777753e+002, 1.198053e+005
1.779075e+002, 1.201463e+005
1.780396e+002, 1.202002e+005
1.781718e+002, 1.198239e+005
1.783040e+002, 1.195311e+005
1.784361e+002, 1.190251e+005
1.785683e+002, 1.192724e+005
1.787004e+002, 1.192367e+005
1.788326e+002, 1.187548e+005
1.789648e+002, 1.179411e+005
1.790969e+002, 1.176483e+005
1.792291e+002, 1.177322e+005
1.793612e+002, 1.175537e+005
1.794934e+002, 1.171958e+005
1.796255e+002, 1.168337e+005
1.797577e+002, 1.161787e+005
1.798899e+002, 1.164780e+005
1.800220e+002, 1.166624e+005
1.801542e+002, 1.163152e+005
1.802863e+002, 1.152518e+005
1.804185e+002, 1.142426e+005
1.805507e+002, 1.135369e+005
1.806828e+002, 1.134377e+005
1.808150e+002, 1.134502e+005
1.809471e+002, 1.130594e+005
1.810793e+002, 1.124337e+005
1.812115e+002, 1.117322e+005
1.813436e+002, 1.117394e+005
1.814758e+002, 1.112553e+005
1.816079e+002, 1.110389e+005
1.817401e+002, 1.109440e+005
1.818723e+002, 1.117589e+005
1.820044e+002, 1.117089e+005
1.821366e+002, 1.109664e+005
1.822687e+002, 1.110701e+005
1.824009e+002, 1.113923e+005
1.825330e+002, 1.108972e+005
1.826652e+002, 1.104354e+005
1.827974e+002, 1.101360e+005
1.829295e+002, 1.099821e+005
1.830617e+002, 1.101363e+005
1.831938e+002, 1.098807e+005
1.833260e+002, 1.093946e+005
1.834581e+002, 1.087734e+005
1.835903e+002, 1.087337e+005
1.837225e+002, 1.085813e+005
1.838546e+002, 1.082666e+005
1.839868e+002, 1.078041e+005
1.841189e+002, 1.074112e+005
1.842511e+002, 1.071371e+005
1.843833e+002, 1.067505e+005
1.845154e+002, 1.066777e+005
1.846476e+002, 1.060171e+005
1.847797e+002, 1.059165e+005
1.849119e+002, 1.056152e+005
1.850441e+002, 1.059226e+005
1.851762e+002, 1.057649e+005
1.853084e+002, 1.055196e+005
1.854405e+002, 1.049776e+005
1.855727e+002, 1.044377e+005
1.857048e+002, 1.041996e+005
1.858370e+002, 1.043267e+005
1.859692e+002, 1.039189e+005
1.861013e+002, 1.037018e+005
1.862335e+002, 1.032151e+005
1.863656e+002, 1.027617e+005
1.864978e+002, 1.028011e+005
1.866300e+002, 1.030306e+005
1.867621e+002, 1.026745e+005
1.868943e+002, 1.024995e+005
1.870264e+002, 1.025952e+005
1.871586e+002, 1.022315e+005
1.872908e+002, 1.017412e+005
1.874229e+002, 1.020010e+005
1.875551e+002, 1.016425e+005
1.876872e+002, 1.017806e+005
1.878194e+002, 1.019216e+005
1.879515e+002, 1.018336e+005
1.880837e+002, 1.009133e+005
1.882159e+002, 1.005350e+005
1.883480e+002, 1.003846e+005
1.884802e+002, 1.001714e+005
1.886123e+002, 9.999894e+004
1.887445e+002, 9.989035e+004
1.888766e+002, 9.967080e+004
1.890088e+002, 9.981200e+004
1.891410e+002, 9.910948e+004
1.892731e+002, 9.877539e+004
1.894053e+002, 9.878098e+004
1.895374e+002, 9.876131e+004
1.896696e+002, 9.832557e+004
1.898018e+002, 9.795320e+004
1.899339e+002, 9.796563e+004
1.900661e+002, 9.770549e+004
1.901982e+002, 9.743816e+004
1.903304e+002, 9.733624e+004
1.904626e+002, 9.736349e+004
1.905947e+002, 9.744327e+004
1.907269e+002, 9.759271e+004
1.908590e+002, 9.732248e+004
1.909912e+002, 9.713059e+004
1.911234e+002, 9.635283e+004
1.912555e+002, 9.552302e+004
1.913877e+002, 9.552138e+004
1.915198e+002, 9.571476e+004
1.916520e+002, 9.563165e+004
1.917841e+002, 9.513341e+004
1.919163e+002, 9.425214e+004
1.920485e+002, 9.397795e+004
1.921806e+002, 9.417371e+004
1.923128e+002, 9.384886e+004
1.924449e+002, 9.389709e+004
1.925771e+002, 9.318545e+004
1.927092e+002, 9.307464e+004
1.928414e+002, 9.268539e+004
1.929736e+002, 9.291606e+004
1.931057e+002, 9.302142e+004
1.932379e+002, 9.273078e+004
1.933700e+002, 9.236905e+004
1.935022e+002, 9.251421e+004
1.936344e+002, 9.193695e+004
1.937665e+002, 9.175517e+004
1.938987e+002, 9.215248e+004
1.940308e+002, 9.241338e+004
1.941630e+002, 9.169244e+004
1.942952e+002, 9.089748e+004
1.944273e+002, 9.061528e+004
1.945595e+002, 9.040913e+004
1.946916e+002, 9.058653e+004
1.948238e+002, 9.015586e+004
1.949559e+002, 9.006601e+004
1.950881e+002, 9.141077e+004
1.952203e+002, 9.307953e+004
1.953524e+002, 8.981255e+004
1.954846e+002, 8.920922e+004
1.956167e+002, 8.923227e+004
1.957489e+002, 8.900515e+004
1.958811e+002, 8.895974e+004
1.960132e+002, 8.851368e+004
1.961454e+002, 8.836948e+004
1.962775e+002, 8.824580e+004
1.964097e+002, 8.751528e+004
1.965419e+002, 8.737148e+004
1.966740e+002, 8.722078e+004
1.968062e+002, 8.691062e+004
1.969383e+002, 8.664725e+004
1.970705e+002, 8.632319e+004
1.972026e+002, 8.690732e+004
1.973348e+002, 8.634544e+004
1.974670e+002, 8.580342e+004
1.975991e+002, 8.572818e+004
1.977313e+002, 8.556039e+004
1.978634e+002, 8.565467e+004
1.979956e+002, 8.553684e+004
1.981277e+002, 8.528959e+004
1.982599e+002, 8.552585e+004
1.983921e+002, 8.598620e+004
1.985242e+002, 8.570956e+004
1.986564e+002, 8.507998e+004
1.987885e+002, 8.465398e+004
1.989207e+002, 8.517963e+004
1.990529e+002, 8.513645e+004
1.991850e+002, 8.452885e+004
1.993172e+002, 8.350789e+004
1.994493e+002, 8.352064e+004
1.995815e+002, 8.374432e+004
1.997137e+002, 8.309183e+004
1.998458e+002, 8.289758e+004
1.999780e+002, 8.337470e+004
2.001101e+002, 8.307169e+004
2.002423e+002, 8.324688e+004
2.003745e+002, 8.303479e+004
2.005066e+002, 8.252502e+004
2.006388e+002, 8.271700e+004
2.007709e+002, 8.244980e+004
2.009031e+002, 8.228886e+004
2.010352e+002, 8.182760e+004
2.011674e+002, 8.160165e+004
2.012996e+002, 8.120263e+004
2.014317e+002, 8.101259e+004
2.015639e+002, 8.071547e+004
2.016960e+002, 8.067171e+004
2.018282e+002, 8.078767e+004
2.019604e+002, 8.053373e+004
2.020925e+002, 8.052986e+004
2.022247e+002, 8.043827e+004
2.023568e+002, 8.007330e+004
2.024890e+002, 7.986938e+004
2.026211e+002, 7.953899e+004
2.027533e+002, 7.944830e+004
2.028855e+002, 7.941199e+004
2.030176e+002, 7.898262e+004
2.031498e+002, 7.885743e+004
2.032819e+002, 7.872041e+004
2.034141e+002, 7.810011e+004
2.035462e+002, 7.775842e+004
2.036784e+002, 7.781988e+004
2.038106e+002, 7.759608e+004
2.039427e+002, 7.739584e+004
2.040749e+002, 7.724031e+004
2.042070e+002, 7.738468e+004
2.043392e+002, 7.734948e+004
2.044714e+002, 7.664038e+004
2.046035e+002, 7.679267e+004
2.047357e+002, 7.674888e+004
2.048678e+002, 7.661924e+004
2.050000e+002, 7.697497e+004
2.051322e+002, 7.719372e+004
2.052643e+002, 7.668163e+004
2.053965e+002, 7.613506e+004
2.055286e+002, 7.569002e+004
2.056608e+002, 7.586998e+004
2.057930e+002, 7.589120e+004
2.059251e+002, 7.548898e+004
2.060573e+002, 7.504802e+004
2.061894e+002, 7.483561e+004
2.063216e+002, 7.456781e+004
2.064538e+002, 7.423136e+004
2.065859e+002, 7.431974e+004
2.067181e+002, 7.387997e+004
2.068502e+002, 7.362666e+004
2.069824e+002, 7.396880e+004
2.071145e+002, 7.393780e+004
2.072467e+002, 7.413721e+004
2.073789e+002, 7.435467e+004
2.075110e+002, 7.330600e+004
2.076432e+002, 7.316911e+004
2.077753e+002, 7.339043e+004
2.079075e+002, 7.367330e+004
2.080396e+002, 7.321102e+004
2.081718e+002, 7.291282e+004
2.083040e+002, 7.285859e+004
2.084361e+002, 7.314156e+004
2.085683e+002, 7.339821e+004
2.087004e+002, 7.293686e+004
2.088326e+002, 7.266492e+004
2.089648e+002, 7.254304e+004
2.090969e+002, 7.226748e+004
2.092291e+002, 7.149430e+004
2.093612e+002, 7.125401e+004
2.094934e+002, 7.084315e+004
2.096255e+002, 7.086576e+004
2.097577e+002, 7.035584e+004
2.098899e+002, 7.047304e+004
2.100220e+002, 7.073534e+004
2.101542e+002, 7.077091e+004
2.102863e+002, 7.066348e+004
2.104185e+002, 7.084311e+004
2.105507e+002, 7.029539e+004
2.106828e+002, 6.987225e+004
2.108150e+002, 7.036045e+004
2.109471e+002, 6.957138e+004
2.110793e+002, 6.925636e+004
2.112115e+002, 6.957054e+004
2.113436e+002, 6.958252e+004
2.114758e+002, 6.956690e+004
2.116079e+002, 6.956696e+004
2.117401e+002, 6.980171e+004
2.118723e+002, 6.921216e+004
2.120044e+002, 6.907038e+004
2.121366e+002, 6.850753e+004
2.122687e+002, 6.886084e+004
2.124009e+002, 6.856708e+004
2.125330e+002, 6.845065e+004
2.126652e+002, 6.809807e+004
2.127974e+002, 6.781278e+004
2.129295e+002, 6.761256e+004
2.130617e+002, 6.743473e+004
2.131938e+002, 6.725796e+004
2.133260e+002, 6.727386e+004
2.134581e+002, 6.729777e+004
2.135903e+002, 6.738342e+004
2.137225e+002, 6.722783e+004
2.138546e+002, 6.646687e+004
2.139868e+002, 6.681378e+004
2.141189e+002, 6.710720e+004
2.142511e+002, 6.696868e+004
2.143833e+002, 6.630528e+004
2.145154e+002, 6.561958e+004
2.146476e+002, 6.570140e+004
2.147797e+002, 6.586680e+004
2.149119e+002, 6.566392e+004
2.150441e+002, 6.549930e+004
2.151762e+002, 6.561048e+004
2.153084e+002, 6.551308e+004
2.154405e+002, 6.541926e+004
2.155727e+002, 6.444822e+004
2.157048e+002, 6.442234e+004
2.158370e+002, 6.496226e+004
2.159692e+002, 6.507716e+004
2.161013e+002, 6.489602e+004
2.162335e+002, 6.443543e+004
2.163656e+002, 6.454846e+004
2.164978e+002, 6.424333e+004
2.166300e+002, 6.359189e+004
2.167621e+002, 6.355810e+004
2.168943e+002, 6.358821e+004
2.170264e+002, 6.348238e+004
2.171586e+002, 6.334045e+004
2.172908e+002, 6.336265e+004
2.174229e+002, 6.327556e+004
2.175551e+002, 6.270997e+004
2.176872e+002, 6.242377e+004
2.178194e+002, 6.214963e+004
2.179515e+002, 6.253171e+004
2.180837e+002, 6.313156e+004
2.182159e+002, 6.286997e+004
2.183480e+002, 6.252776e+004
2.184802e+002, 6.230081e+004
2.186123e+002, 6.165074e+004
2.187445e+002, 6.190528e+004
2.188766e+002, 6.236627e+004
2.190088e+002, 6.255929e+004
2.191410e+002, 6.223325e+004
2.192731e+002, 6.212552e+004
2.194053e+002, 6.244647e+004
2.195374e+002, 6.231302e+004
2.196696e+002, 6.211582e+004
2.198018e+002, 6.140233e+004
2.199339e+002, 6.093875e+004
2.200661e+002, 6.088946e+004
2.201982e+002, 6.135675e+004
2.203304e+002, 6.133182e+004
2.204626e+002, 6.092937e+004
2.205947e+002, 6.067407e+004
2.207269e+002, 6.077899e+004
2.208590e+002, 6.103722e+004
2.209912e+002, 6.052571e+004
2.211234e+002, 6.054429e+004
2.212555e+002, 6.026068e+004
2.213877e+002, 6.070328e+004
2.215198e+002, 6.073848e+004
2.216520e+002, 5.984194e+004
2.217841e+002, 5.972249e+004
2.219163e+002, 5.994825e+004
2.220485e+002, 6.009827e+004
2.221806e+002, 5.973627e+004
2.223128e+002, 5.976284e+004
2.224449e+002, 5.934586e+004
2.225771e+002, 5.875125e+004
2.227093e+002, 5.847893e+004
2.228414e+002, 5.842559e+004
2.229736e+002, 5.846948e+004
2.231057e+002, 5.835840e+004
2.232379e+002, 5.833771e+004
2.233700e+002, 5.839275e+004
2.235022e+002, 5.819625e+004
2.236344e+002, 5.844933e+004
2.237665e+002, 5.827491e+004
2.238987e+002, 5.785459e+004
2.240308e+002, 5.762074e+004
2.241630e+002, 5.766939e+004
2.242952e+002, 5.759585e+004
2.244273e+002, 5.736783e+004
2.245595e+002, 5.726228e+004
2.246916e+002, 5.710226e+004
2.248238e+002, 5.711878e+004
2.249559e+002, 5.680977e+004
2.250881e+002, 5.636001e+004
2.252203e+002, 5.652055e+004
2.253524e+002, 5.618456e+004
2.254846e+002, 5.597891e+004
2.256167e+002, 5.605884e+004
2.257489e+002, 5.628524e+004
2.258811e+002, 5.628489e+004
2.260132e+002, 5.630087e+004
2.261454e+002, 5.643036e+004
2.262775e+002, 5.594614e+004
2.264097e+002, 5.535064e+004
2.265419e+002, 5.512657e+004
2.266740e+002, 5.554293e+004
2.268062e+002, 5.578788e+004
2.269383e+002, 5.567564e+004
2.270705e+002, 5.520911e+004
2.272026e+002, 5.513563e+004
2.273348e+002, 5.479673e+004
2.274670e+002, 5.503177e+004
2.275991e+002, 5.569607e+004
2.277313e+002, 5.531946e+004
2.278634e+002, 5.494965e+004
2.279956e+002, 5.474804e+004
2.281277e+002, 5.452222e+004
2.282599e+002, 5.473932e+004
2.283921e+002, 5.443325e+004
2.285242e+002, 5.416889e+004
2.286564e+002, 5.425194e+004
2.287885e+002, 5.469468e+004
2.289207e+002, 5.448514e+004
2.290529e+002, 5.388839e+004
2.291850e+002, 5.373238e+004
2.293172e+002, 5.348040e+004
2.294493e+002, 5.290272e+004
2.295815e+002, 5.331918e+004
2.297137e+002, 5.375991e+004
2.298458e+002, 5.367424e+004
2.299780e+002, 5.355024e+004
2.301101e+002, 5.351431e+004
2.302423e+002, 5.312878e+004
2.303745e+002, 5.315622e+004
2.305066e+002, 5.322385e+004
2.306388e+002, 5.299266e+004
2.307709e+002, 5.223165e+004
2.309031e+002, 5.222279e+004
2.310352e+002, 5.207738e+004
2.311674e+002, 5.232541e+004
2.312996e+002, 5.227025e+004
2.314317e+002, 5.167513e+004
2.315639e+002, 5.221037e+004
2.316960e+002, 5.226147e+004
2.318282e+002, 5.178819e+004
2.319604e+002, 5.180884e+004
2.320925e+002, 5.155204e+004
2.322247e+002, 5.135186e+004
2.323568e+002, 5.146170e+004
2.324890e+002, 5.127933e+004
2.326211e+002, 5.129177e+004
2.327533e+002, 5.124377e+004
2.328855e+002, 5.123111e+004
2.330176e+002, 5.093161e+004
2.331498e+002, 5.134348e+004
2.332819e+002, 5.140437e+004
2.334141e+002, 5.089363e+004
2.335462e+002, 5.079709e+004
2.336784e+002, 5.087164e+004
2.338106e+002, 5.102994e+004
2.339427e+002, 5.113760e+004
2.340749e+002, 5.090079e+004
2.342070e+002, 5.078175e+004
2.343392e+002, 5.084092e+004
2.344714e+002, 5.082812e+004
2.346035e+002, 5.006307e+004
2.347357e+002, 5.008173e+004
2.348678e+002, 5.014909e+004
2.350000e+002, 4.966368e+004
2.351322e+002, 4.893449e+004
2.352643e+002, 4.903018e+004
2.353965e+002, 4.919022e+004
2.355286e+002, 4.940992e+004
2.356608e+002, 4.938756e+004
2.357930e+002, 4.941993e+004
2.359251e+002, 4.913300e+004
2.360573e+002, 4.881899e+004
2.361894e+002, 4.920913e+004
2.363216e+002, 4.911930e+004
2.364538e+002, 4.887492e+004
2.365859e+002, 4.854211e+004
2.367181e+002, 4.847901e+004
2.368502e+002, 4.821807e+004
2.369824e+002, 4.834875e+004
2.371145e+002, 4.836087e+004
2.372467e+002, 4.844832e+004
2.373789e+002, 4.848595e+004
2.375110e+002, 4.845746e+004
2.376432e+002, 4.791119e+004
2.377753e+002, 4.791398e+004
2.379075e+002, 4.803369e+004
2.380396e+002, 4.783891e+004
2.381718e+002, 4.746953e+004
2.383040e+002, 4.739493e+004
2.384361e+002, 4.729478e+004
2.385683e+002, 4.792475e+004
2.387004e+002, 4.817380e+004
2.388326e+002, 4.816330e+004
2.389648e+002, 4.778105e+004
2.390969e+002, 4.708452e+004
2.392291e+002, 4.705267e+004
2.393612e+002, 4.692882e+004
2.394934e+002, 4.682990e+004
2.396255e+002, 4.668749e+004
2.397577e+002, 4.628904e+004
2.398899e+002, 4.625627e+004
2.400220e+002, 4.629541e+004
2.401542e+002, 4.690014e+004
2.402863e+002, 4.651916e+004
2.404185e+002, 4.605148e+004
2.405507e+002, 4.624118e+004
2.406828e+002, 4.623296e+004
2.408150e+002, 4.620932e+004
2.409471e+002, 4.585018e+004
2.410793e+002, 4.565589e+004
2.412115e+002, 4.552290e+004
2.413436e+002, 4.599114e+004
2.414758e+002, 4.621165e+004
2.416079e+002, 4.580265e+004
2.417401e+002, 4.571622e+004
2.418723e+002, 4.562843e+004
2.420044e+002, 4.541269e+004
2.421366e+002, 4.553947e+004
2.422687e+002, 4.574054e+004
2.424009e+002, 4.570448e+004
2.425330e+002, 4.521105e+004
2.426652e+002, 4.544167e+004
2.427974e+002, 4.529073e+004
2.429295e+002, 4.485150e+004
2.430617e+002, 4.439292e+004
2.431938e+002, 4.461238e+004
2.433260e+002, 4.471563e+004
2.434581e+002, 4.473800e+004
2.435903e+002, 4.487028e+004
2.437225e+002, 4.465131e+004
2.438546e+002, 4.439392e+004
2.439868e+002, 4.397264e+004
2.441189e+002, 4.387823e+004
2.442511e+002, 4.405310e+004
2.443833e+002, 4.384438e+004
2.445154e+002, 4.400070e+004
2.446476e+002, 4.387237e+004
2.447797e+002, 4.378873e+004
2.449119e+002, 4.388059e+004
2.450441e+002, 4.367099e+004
2.451762e+002, 4.331780e+004
2.453084e+002, 4.366281e+004
2.454405e+002, 4.395688e+004
2.455727e+002, 4.377307e+004
2.457048e+002, 4.358991e+004
2.458370e+002, 4.389918e+004
2.459692e+002, 4.389051e+004
2.461013e+002, 4.387530e+004
2.462335e+002, 4.322108e+004
2.463656e+002, 4.318963e+004
2.464978e+002, 4.320423e+004
2.466300e+002, 4.365730e+004
2.467621e+002, 4.355333e+004
2.468943e+002, 4.311314e+004
2.470264e+002, 4.333749e+004
2.471586e+002, 4.322166e+004
2.472908e+002, 4.275289e+004
2.474229e+002, 4.282989e+004
2.475551e+002, 4.263314e+004
2.476872e+002, 4.228609e+004
2.478194e+002, 4.255334e+004
2.479515e+002, 4.240644e+004
2.480837e+002, 4.253913e+004
2.482159e+002, 4.208799e+004
2.483480e+002, 4.160398e+004
2.484802e+002, 4.095526e+004
2.486123e+002, 4.111767e+004
2.487445e+002, 4.144741e+004
2.488766e+002, 4.163984e+004
2.490088e+002, 4.191313e+004
2.491410e+002, 4.227396e+004
2.492731e+002, 4.168740e+004
2.494053e+002, 4.120225e+004
2.495374e+002, 4.160595e+004
2.496696e+002, 4.178139e+004
2.498018e+002, 4.130474e+004
2.499339e+002, 4.071603e+004
2.500661e+002, 4.053742e+004
2.501982e+002, 4.065959e+004
2.503304e+002, 4.090796e+004
2.504626e+002, 4.086139e+004
2.505947e+002, 4.101125e+004
2.507269e+002, 4.089055e+004
2.508590e+002, 4.051548e+004
2.509912e+002, 4.033541e+004
2.511234e+002, 4.034510e+004
2.512555e+002, 4.035442e+004
2.513877e+002, 4.007346e+004
2.515198e+002, 3.971212e+004
2.516520e+002, 3.996606e+004
2.517841e+002, 3.996090e+004
2.519163e+002, 3.981282e+004
2.520485e+002, 3.965199e+004
2.521806e+002, 3.968021e+004
2.523128e+002, 3.987648e+004
2.524449e+002, 3.953328e+004
2.525771e+002, 3.938544e+004
2.527093e+002, 3.962210e+004
2.528414e+002, 3.959167e+004
2.529736e+002, 3.983091e+004
2.531057e+002, 3.956906e+004
2.532379e+002, 3.942529e+004
2.533700e+002, 3.937405e+004
2.535022e+002, 3.908848e+004
2.536344e+002, 3.893642e+004
2.537665e+002, 3.915903e+004
2.538987e+002, 3.900968e+004
2.540308e+002, 3.909406e+004
2.541630e+002, 3.911557e+004
2.542952e+002, 3.893152e+004
2.544273e+002, 3.904118e+004
2.545595e+002, 3.915675e+004
2.546916e+002, 3.897944e+004
2.548238e+002, 3.874359e+004
2.549559e+002, 3.887282e+004
2.550881e+002, 3.881670e+004
2.552203e+002, 3.872559e+004
2.553524e+002, 3.875307e+004
2.554846e+002, 3.882030e+004
2.556167e+002, 3.890196e+004
2.557489e+002, 3.847514e+004
2.558811e+002, 3.834878e+004
2.560132e+002, 3.835375e+004
2.561454e+002, 3.864702e+004
2.562775e+002, 3.803888e+004
2.564097e+002, 3.812400e+004
2.565419e+002, 3.817681e+004
2.566740e+002, 3.827989e+004
2.568062e+002, 3.819228e+004
2.569383e+002, 3.835898e+004
2.570705e+002, 3.835974e+004
2.572026e+002, 3.857748e+004
2.573348e+002, 3.905096e+004
2.574670e+002, 3.837770e+004
2.575991e+002, 3.810661e+004
2.577313e+002, 3.778754e+004
2.578634e+002, 3.767676e+004
2.579956e+002, 3.783654e+004
2.581277e+002, 3.780337e+004
2.582599e+002, 3.764284e+004
2.583921e+002, 3.742161e+004
2.585242e+002, 3.737059e+004
2.586564e+002, 3.741179e+004
2.587885e+002, 3.766458e+004
2.589207e+002, 3.772964e+004
2.590529e+002, 3.722521e+004
2.591850e+002, 3.758877e+004
2.593172e+002, 3.759386e+004
2.594493e+002, 3.737399e+004
2.595815e+002, 3.717301e+004
2.597137e+002, 3.710055e+004
2.598458e+002, 3.706797e+004
2.599780e+002, 3.691601e+004
2.601101e+002, 3.667293e+004
2.602423e+002, 3.641617e+004
2.603745e+002, 3.630629e+004
2.605066e+002, 3.632733e+004
2.606388e+002, 3.618845e+004
2.607709e+002, 3.529046e+004
2.609031e+002, 3.319300e+004
2.610352e+002, 3.040952e+004
2.611674e+002, 3.088882e+004
2.612996e+002, 2.955650e+004
2.614317e+002, 2.473903e+004
2.615639e+002, 2.371911e+004
2.616960e+002, 2.959319e+004
2.618282e+002, 3.529154e+004
2.619604e+002, 3.589067e+004
2.620925e+002, 3.623111e+004
2.622247e+002, 3.594882e+004
2.623568e+002, 3.535040e+004
2.624890e+002, 3.506419e+004
2.626212e+002, 3.521370e+004
2.627533e+002, 3.524355e+004
2.628855e+002, 3.533654e+004
2.630176e+002, 3.518493e+004
2.631498e+002, 3.487579e+004
2.632819e+002, 3.517261e+004
2.634141e+002, 3.530693e+004
2.635463e+002, 3.549200e+004
2.636784e+002, 3.514073e+004
2.638106e+002, 3.495185e+004
2.639427e+002, 3.562776e+004
2.640749e+002, 3.586772e+004
2.642070e+002, 3.575189e+004
2.643392e+002, 3.535505e+004
2.644714e+002, 3.513973e+004
2.646035e+002, 3.486658e+004
2.647357e+002, 3.479933e+004
2.648679e+002, 3.510088e+004
2.650000e+002, 3.505675e+004
2.651321e+002, 3.460588e+004
2.652643e+002, 3.441860e+004
2.653965e+002, 3.490142e+004
2.655286e+002, 3.488279e+004
2.656608e+002, 3.454926e+004
2.657930e+002, 3.426882e+004
2.659251e+002, 3.424957e+004
2.660573e+002, 3.417191e+004
2.661894e+002, 3.426909e+004
2.663216e+002, 3.407111e+004
2.664537e+002, 3.419061e+004
2.665859e+002, 3.428489e+004
2.667181e+002, 3.414893e+004
2.668502e+002, 3.439904e+004
2.669824e+002, 3.434040e+004
2.671145e+002, 3.415293e+004
2.672467e+002, 3.403956e+004
2.673788e+002, 3.390600e+004
2.675110e+002, 3.371921e+004
2.676432e+002, 3.368895e+004
2.677753e+002, 3.372633e+004
2.679075e+002, 3.381409e+004
2.680396e+002, 3.388577e+004
2.681718e+002, 3.386611e+004
2.683040e+002, 3.353180e+004
2.684361e+002, 3.377141e+004
2.685683e+002, 3.374770e+004
2.687004e+002, 3.349762e+004
2.688326e+002, 3.304011e+004
2.689648e+002, 3.295518e+004
2.690969e+002, 3.306321e+004
2.692291e+002, 3.312162e+004
2.693612e+002, 3.311906e+004
2.694934e+002, 3.342294e+004
2.696255e+002, 3.375050e+004
2.697577e+002, 3.372709e+004
2.698899e+002, 3.357474e+004
2.700220e+002, 3.351273e+004
2.701542e+002, 3.348722e+004
2.702863e+002, 3.368366e+004
2.704185e+002, 3.329244e+004
2.705507e+002, 3.313592e+004
2.706828e+002, 3.296497e+004
2.708150e+002, 3.267009e+004
2.709471e+002, 3.233303e+004
2.710793e+002, 3.261792e+004
2.712115e+002, 3.290627e+004
2.713436e+002, 3.261620e+004
2.714758e+002, 3.240556e+004
2.716079e+002, 3.251221e+004
2.717401e+002, 3.266873e+004
2.718723e+002, 3.267233e+004
2.720044e+002, 3.250595e+004
2.721366e+002, 3.237303e+004
2.722687e+002, 3.254730e+004
2.724009e+002, 3.235773e+004
2.725330e+002, 3.203665e+004
2.726652e+002, 3.235201e+004
2.727974e+002, 3.242202e+004
2.729295e+002, 3.231399e+004
2.730617e+002, 3.253245e+004
2.731938e+002, 3.281281e+004
2.733260e+002, 3.255721e+004
2.734581e+002, 3.220453e+004
2.735903e+002, 3.232911e+004
2.737225e+002, 3.275408e+004
2.738546e+002, 3.233095e+004
2.739868e+002, 3.215885e+004
2.741190e+002, 3.193985e+004
2.742511e+002, 3.200097e+004
2.743832e+002, 3.221402e+004
2.745154e+002, 3.240933e+004
2.746476e+002, 3.215732e+004
2.747797e+002, 3.189830e+004
2.749119e+002, 3.149184e+004
2.750441e+002, 3.146483e+004
2.751762e+002, 3.154381e+004
2.753083e+002, 3.175364e+004
2.754406e+002, 3.199763e+004
2.755727e+002, 3.185838e+004
2.757048e+002, 3.199419e+004
2.758370e+002, 3.192622e+004
2.759692e+002, 3.183564e+004
2.761013e+002, 3.193673e+004
2.762335e+002, 3.184495e+004
2.763657e+002, 3.148735e+004
2.764978e+002, 3.138511e+004
2.766299e+002, 3.146478e+004
2.767621e+002, 3.174172e+004
2.768943e+002, 3.218649e+004
2.770264e+002, 3.187580e+004
2.771586e+002, 3.152334e+004
2.772908e+002, 3.139473e+004
2.774229e+002, 3.096270e+004
2.775551e+002, 3.115836e+004
2.776872e+002, 3.164939e+004
2.778194e+002, 3.185219e+004
2.779515e+002, 3.154957e+004
2.780837e+002, 3.142714e+004
2.782159e+002, 3.142697e+004
2.783480e+002, 3.122891e+004
2.784802e+002, 3.117965e+004
2.786123e+002, 3.133500e+004
2.787445e+002, 3.126831e+004
2.788766e+002, 3.099775e+004
2.790088e+002, 3.090624e+004
2.791410e+002, 3.077965e+004
2.792731e+002, 3.077088e+004
2.794053e+002, 3.086215e+004
2.795374e+002, 3.132565e+004
2.796696e+002, 3.163964e+004
2.798018e+002, 3.167287e+004
2.799339e+002, 3.165902e+004
2.800661e+002, 3.127509e+004
2.801982e+002, 3.128195e+004
2.803304e+002, 3.112299e+004
2.804626e+002, 3.081465e+004
2.805947e+002, 3.075948e+004
2.807269e+002, 3.094772e+004
2.808590e+002, 3.070426e+004
2.809912e+002, 3.076695e+004
2.811234e+002, 3.061352e+004
2.812555e+002, 3.073209e+004
2.813877e+002, 3.063342e+004
2.815198e+002, 3.043763e+004
2.816520e+002, 3.047860e+004
2.817841e+002, 3.035981e+004
2.819163e+002, 3.016052e+004
2.820485e+002, 3.019946e+004
2.821806e+002, 3.028542e+004
2.823128e+002, 3.016999e+004
2.824449e+002, 3.030597e+004
2.825771e+002, 3.067081e+004
2.827093e+002, 3.087808e+004
2.828414e+002, 3.060177e+004
2.829736e+002, 3.054213e+004
2.831057e+002, 3.077331e+004
2.832379e+002, 3.054555e+004
2.833701e+002, 3.031571e+004
2.835022e+002, 3.061729e+004
2.836344e+002, 3.052672e+004
2.837665e+002, 3.018245e+004
2.838987e+002, 3.041888e+004
2.840308e+002, 3.035060e+004
2.841630e+002, 3.025996e+004
2.842952e+002, 3.050705e+004
2.844273e+002, 3.044222e+004
2.845595e+002, 3.038832e+004
2.846917e+002, 3.007379e+004
2.848238e+002, 2.982614e+004
2.849559e+002, 2.984460e+004
2.850881e+002, 2.984879e+004
2.852203e+002, 2.987818e+004
2.853524e+002, 3.026669e+004
2.854846e+002, 3.040866e+004
2.856168e+002, 3.054515e+004
2.857489e+002, 3.082962e+004
2.858810e+002, 3.069152e+004
2.860132e+002, 3.059867e+004
2.861454e+002, 3.086514e+004
2.862775e+002, 3.098416e+004
2.864097e+002, 3.095495e+004
2.865419e+002, 3.123262e+004
2.866740e+002, 3.102653e+004
2.868062e+002, 3.078574e+004
2.869383e+002, 3.099961e+004
2.870705e+002, 3.119672e+004
2.872026e+002, 3.121310e+004
2.873348e+002, 3.116471e+004
2.874670e+002, 3.159373e+004
2.875991e+002, 3.169088e+004
2.877313e+002, 3.145908e+004
2.878634e+002, 3.130584e+004
2.879956e+002, 3.153326e+004
2.881277e+002, 3.134787e+004
2.882599e+002, 3.114066e+004
2.883921e+002, 3.097894e+004
2.885242e+002, 3.103937e+004
2.886564e+002, 3.137661e+004
2.887885e+002, 3.142679e+004
2.889207e+002, 3.136474e+004
2.890529e+002, 3.124592e+004
2.891850e+002, 3.112391e+004
2.893172e+002, 3.129615e+004
2.894493e+002, 3.127760e+004
2.895815e+002, 3.107117e+004
2.897137e+002, 3.097874e+004
2.898458e+002, 3.117608e+004
2.899780e+002, 3.141817e+004
2.901101e+002, 3.154220e+004
2.902423e+002, 3.128955e+004
2.903745e+002, 3.120957e+004
2.905066e+002, 3.144741e+004
2.906388e+002, 3.164083e+004
2.907709e+002, 3.130534e+004
2.909031e+002, 3.147976e+004
2.910352e+002, 3.171036e+004
2.911674e+002, 3.204537e+004
2.912996e+002, 3.211449e+004
2.914317e+002, 3.226756e+004
2.915639e+002, 3.191670e+004
2.916960e+002, 3.157028e+004
2.918282e+002, 3.196769e+004
2.919604e+002, 3.220728e+004
2.920925e+002, 3.183965e+004
2.922247e+002, 3.190526e+004
2.923568e+002, 3.223659e+004
2.924890e+002, 3.231468e+004
2.926212e+002, 3.188134e+004
2.927533e+002, 3.169314e+004
2.928855e+002, 3.164876e+004
2.930176e+002, 3.129443e+004
2.931498e+002, 3.114121e+004
2.932819e+002, 3.104781e+004
2.934141e+002, 3.100686e+004
2.935463e+002, 3.096308e+004
2.936784e+002, 3.077707e+004
2.938106e+002, 3.080237e+004
2.939427e+002, 3.029769e+004
2.940749e+002, 2.986017e+004
2.942070e+002, 3.014579e+004
2.943392e+002, 3.056390e+004
2.944714e+002, 3.064148e+004
2.946035e+002, 3.079560e+004
2.947357e+002, 3.062733e+004
2.948679e+002, 3.020000e+004
2.950000e+002, 3.000383e+004
2.951321e+002, 2.988298e+004
2.952643e+002, 2.978989e+004
2.953965e+002, 2.990758e+004
2.955286e+002, 2.963703e+004
2.956608e+002, 2.958301e+004
2.957930e+002, 2.971887e+004
2.959251e+002, 2.961538e+004
2.960573e+002, 2.974249e+004
2.961895e+002, 3.025259e+004
2.963216e+002, 3.010174e+004
2.964537e+002, 3.022827e+004
2.965859e+002, 3.002456e+004
2.967181e+002, 2.952320e+004
2.968502e+002, 2.940484e+004
2.969824e+002, 2.990556e+004
2.971146e+002, 3.005311e+004
2.972467e+002, 2.936364e+004
2.973788e+002, 2.907782e+004
2.975110e+002, 2.916851e+004
2.976432e+002, 2.937752e+004
2.977753e+002, 2.947821e+004
2.979075e+002, 2.926123e+004
2.980397e+002, 2.935861e+004
2.981718e+002, 2.911354e+004
2.983040e+002, 2.931761e+004
2.984361e+002, 2.920549e+004
2.985683e+002, 2.884590e+004
2.987004e+002, 2.901607e+004
2.988326e+002, 2.931373e+004
2.989648e+002, 2.929799e+004
2.990969e+002, 2.931199e+004
2.992291e+002, 2.937019e+004
2.993612e+002, 2.942884e+004
2.994934e+002, 2.956424e+004
2.996255e+002, 2.943198e+004
2.997577e+002, 2.959985e+004
2.998899e+002, 2.982072e+004
3.000220e+002, 2.954064e+004
3.001542e+002, 2.916724e+004
3.002863e+002, 2.889854e+004
3.004185e+002, 2.890305e+004
3.005507e+002, 2.922134e+004
3.006828e+002, 2.941834e+004
3.008150e+002, 2.908769e+004
3.009471e+002, 2.896856e+004
3.010793e+002, 2.894543e+004
3.012114e+002, 2.928218e+004
3.013436e+002, 2.932099e+004
3.014758e+002, 2.922353e+004
3.016079e+002, 2.953171e+004
3.017401e+002, 2.968056e+004
3.018723e+002, 2.947130e+004
3.020044e+002, 2.913937e+004
3.021365e+002, 2.912623e+004
3.022687e+002, 2.933978e+004
3.024009e+002, 2.897597e+004
3.025330e+002, 2.886348e+004
3.026652e+002, 2.875856e+004
3.027974e+002, 2.881982e+004
3.029295e+002, 2.895083e+004
3.030616e+002, 2.889543e+004
3.031938e+002, 2.905663e+004
3.033260e+002, 2.907667e+004
3.034581e+002, 2.909101e+004
3.035903e+002, 2.910657e+004
3.037225e+002, 2.929217e+004
3.038546e+002, 2.908604e+004
3.039868e+002, 2.874854e+004
3.041190e+002, 2.878224e+004
3.042511e+002, 2.897892e+004
3.043832e+002, 2.928917e+004
3.045154e+002, 2.917132e+004
3.046476e+002, 2.924938e+004
3.047797e+002, 2.940746e+004
3.049119e+002, 2.919843e+004
3.050441e+002, 2.882950e+004
3.051762e+002, 2.863157e+004
3.053083e+002, 2.884130e+004
3.054406e+002, 2.908004e+004
3.055727e+002, 2.890013e+004
3.057048e+002, 2.886979e+004
3.058370e+002, 2.919545e+004
3.059692e+002, 2.944274e+004
3.061013e+002, 2.908192e+004
3.062335e+002, 2.860823e+004
3.063657e+002, 2.873227e+004
3.064978e+002, 2.867985e+004
3.066299e+002, 2.865441e+004
3.067621e+002, 2.886291e+004
3.068943e+002, 2.874453e+004
3.070264e+002, 2.843955e+004
3.071586e+002, 2.845969e+004
3.072908e+002, 2.849423e+004
3.074229e+002, 2.865208e+004
3.075551e+002, 2.903624e+004
3.076873e+002, 2.891150e+004
3.078194e+002, 2.885839e+004
3.079515e+002, 2.886208e+004
3.080837e+002, 2.857308e+004
3.082159e+002, 2.819019e+004
3.083480e+002, 2.855042e+004
3.084802e+002, 2.874847e+004
3.086124e+002, 2.877796e+004
3.087445e+002, 2.877323e+004
3.088766e+002, 2.895341e+004
3.090088e+002, 2.892568e+004
3.091410e+002, 2.920701e+004
3.092731e+002, 2.916262e+004
3.094053e+002, 2.914430e+004
3.095375e+002, 2.914153e+004
3.096696e+002, 2.914153e+004
3.098018e+002, 2.914153e+004
3.099339e+002, 2.914153e+004
3.100661e+002, 2.914153e+004
3.101982e+002, 2.914153e+004
#ENDOFDATA   : End Of Data and File