#FORMAT	     : EMSA/MAS Spectral Data File
#VERSION     : 1.0
#TITLE       : SM315 79eV 15x0,5s
#DATE        : 
#TIME        : 
#OWNER       : Michael Entrup
#NPOINTS     : 2048
#NCOLUMNS    : 1
#XUNITS      : eV
#YUNITS      : e-
#DATATYPE    : XY
#XPERCHAN    : 3.892060e-002
#OFFSET      : 3.914530e+001
#SIGNALTYPE  : ELS
#BEAMKV      : 200000.000000
#MAGCAM      : 125000.000000
#EMISSION    : 0.000000
#PROBECUR    : 0.000000
#BEAMDIAM    : 0.000000
#SPECTRUM    : Spectral Data Starts Here
3.914530e+001, 2.063605e+006
3.918422e+001, 2.063605e+006
3.922314e+001, 2.063605e+006
3.926206e+001, 2.063748e+006
3.930098e+001, 2.064700e+006
3.933990e+001, 2.065119e+006
3.937883e+001, 2.067666e+006
3.941775e+001, 2.068243e+006
3.945667e+001, 2.075209e+006
3.949559e+001, 2.066861e+006
3.953451e+001, 2.054421e+006
3.957343e+001, 2.053027e+006
3.961235e+001, 2.055981e+006
3.965127e+001, 2.046484e+006
3.969019e+001, 2.035121e+006
3.972911e+001, 2.033057e+006
3.976803e+001, 2.037463e+006
3.980695e+001, 2.031109e+006
3.984587e+001, 2.021289e+006
3.988479e+001, 2.017476e+006
3.992371e+001, 2.016550e+006
3.996264e+001, 2.015417e+006
4.000156e+001, 2.011965e+006
4.004047e+001, 2.009663e+006
4.007940e+001, 2.007268e+006
4.011832e+001, 1.999139e+006
4.015724e+001, 1.990799e+006
4.019616e+001, 1.985917e+006
4.023508e+001, 1.982618e+006
4.027400e+001, 1.979276e+006
4.031292e+001, 1.973397e+006
4.035184e+001, 1.968168e+006
4.039076e+001, 1.966159e+006
4.042968e+001, 1.959360e+006
4.046860e+001, 1.954998e+006
4.050752e+001, 1.953593e+006
4.054644e+001, 1.950566e+006
4.058537e+001, 1.948088e+006
4.062428e+001, 1.944401e+006
4.066320e+001, 1.941536e+006
4.070213e+001, 1.939042e+006
4.074105e+001, 1.933558e+006
4.077997e+001, 1.929370e+006
4.081889e+001, 1.926094e+006
4.085781e+001, 1.920487e+006
4.089673e+001, 1.917361e+006
4.093565e+001, 1.914077e+006
4.097457e+001, 1.911368e+006
4.101349e+001, 1.910490e+006
4.105241e+001, 1.907201e+006
4.109133e+001, 1.901516e+006
4.113025e+001, 1.897549e+006
4.116917e+001, 1.895842e+006
4.120810e+001, 1.892585e+006
4.124701e+001, 1.887975e+006
4.128593e+001, 1.882790e+006
4.132486e+001, 1.880533e+006
4.136378e+001, 1.880005e+006
4.140270e+001, 1.879211e+006
4.144162e+001, 1.878149e+006
4.148054e+001, 1.873293e+006
4.151946e+001, 1.871600e+006
4.155838e+001, 1.868737e+006
4.159730e+001, 1.866341e+006
4.163622e+001, 1.865323e+006
4.167514e+001, 1.862874e+006
4.171406e+001, 1.859251e+006
4.175298e+001, 1.856306e+006
4.179190e+001, 1.858027e+006
4.183082e+001, 1.855688e+006
4.186974e+001, 1.853443e+006
4.190866e+001, 1.850302e+006
4.194759e+001, 1.846500e+006
4.198651e+001, 1.844726e+006
4.202542e+001, 1.846212e+006
4.206435e+001, 1.847297e+006
4.210327e+001, 1.847050e+006
4.214219e+001, 1.846496e+006
4.218111e+001, 1.845034e+006
4.222003e+001, 1.843794e+006
4.225895e+001, 1.842665e+006
4.229787e+001, 1.842971e+006
4.233679e+001, 1.842478e+006
4.237571e+001, 1.840344e+006
4.241463e+001, 1.838802e+006
4.245355e+001, 1.839868e+006
4.249247e+001, 1.840467e+006
4.253139e+001, 1.837642e+006
4.257032e+001, 1.837318e+006
4.260923e+001, 1.836735e+006
4.264816e+001, 1.832593e+006
4.268708e+001, 1.834493e+006
4.272600e+001, 1.834020e+006
4.276492e+001, 1.834328e+006
4.280384e+001, 1.833614e+006
4.284276e+001, 1.833933e+006
4.288168e+001, 1.835340e+006
4.292060e+001, 1.834978e+006
4.295952e+001, 1.833194e+006
4.299844e+001, 1.835250e+006
4.303736e+001, 1.836278e+006
4.307628e+001, 1.835245e+006
4.311520e+001, 1.835887e+006
4.315413e+001, 1.839363e+006
4.319305e+001, 1.841354e+006
4.323196e+001, 1.841870e+006
4.327089e+001, 1.839605e+006
4.330981e+001, 1.839491e+006
4.334873e+001, 1.840632e+006
4.338765e+001, 1.839468e+006
4.342657e+001, 1.840526e+006
4.346549e+001, 1.842006e+006
4.350441e+001, 1.845225e+006
4.354333e+001, 1.844844e+006
4.358225e+001, 1.846283e+006
4.362117e+001, 1.845727e+006
4.366009e+001, 1.845142e+006
4.369901e+001, 1.845232e+006
4.373793e+001, 1.848921e+006
4.377686e+001, 1.849645e+006
4.381577e+001, 1.851742e+006
4.385469e+001, 1.851831e+006
4.389362e+001, 1.852328e+006
4.393254e+001, 1.852148e+006
4.397146e+001, 1.851064e+006
4.401038e+001, 1.854328e+006
4.404930e+001, 1.856075e+006
4.408822e+001, 1.858320e+006
4.412714e+001, 1.859797e+006
4.416606e+001, 1.859350e+006
4.420498e+001, 1.859785e+006
4.424390e+001, 1.861310e+006
4.428282e+001, 1.864213e+006
4.432174e+001, 1.867585e+006
4.436066e+001, 1.871654e+006
4.439958e+001, 1.875990e+006
4.443850e+001, 1.872781e+006
4.447742e+001, 1.871186e+006
4.451635e+001, 1.871959e+006
4.455527e+001, 1.872167e+006
4.459418e+001, 1.877609e+006
4.463311e+001, 1.876604e+006
4.467203e+001, 1.874917e+006
4.471095e+001, 1.876510e+006
4.474987e+001, 1.878150e+006
4.478879e+001, 1.878466e+006
4.482771e+001, 1.881128e+006
4.486663e+001, 1.882165e+006
4.490555e+001, 1.884646e+006
4.494447e+001, 1.885380e+006
4.498339e+001, 1.885895e+006
4.502231e+001, 1.888771e+006
4.506123e+001, 1.892757e+006
4.510015e+001, 1.895016e+006
4.513908e+001, 1.894205e+006
4.517799e+001, 1.895524e+006
4.521692e+001, 1.897151e+006
4.525584e+001, 1.896531e+006
4.529476e+001, 1.894917e+006
4.533368e+001, 1.899585e+006
4.537260e+001, 1.901501e+006
4.541152e+001, 1.900204e+006
4.545044e+001, 1.899763e+006
4.548936e+001, 1.898996e+006
4.552828e+001, 1.900523e+006
4.556720e+001, 1.900580e+006
4.560612e+001, 1.900423e+006
4.564504e+001, 1.902263e+006
4.568396e+001, 1.903393e+006
4.572289e+001, 1.905304e+006
4.576180e+001, 1.905315e+006
4.580072e+001, 1.907269e+006
4.583965e+001, 1.906138e+006
4.587857e+001, 1.905541e+006
4.591749e+001, 1.905929e+006
4.595641e+001, 1.909672e+006
4.599533e+001, 1.907094e+006
4.603425e+001, 1.905896e+006
4.607317e+001, 1.907732e+006
4.611209e+001, 1.909422e+006
4.615101e+001, 1.907444e+006
4.618993e+001, 1.906500e+006
4.622885e+001, 1.908847e+006
4.626777e+001, 1.909669e+006
4.630669e+001, 1.906251e+006
4.634561e+001, 1.904370e+006
4.638453e+001, 1.903256e+006
4.642345e+001, 1.904035e+006
4.646238e+001, 1.905568e+006
4.650130e+001, 1.908181e+006
4.654021e+001, 1.910011e+006
4.657914e+001, 1.909181e+006
4.661806e+001, 1.908159e+006
4.665698e+001, 1.906514e+006
4.669590e+001, 1.906863e+006
4.673482e+001, 1.901178e+006
4.677374e+001, 1.899178e+006
4.681266e+001, 1.897739e+006
4.685158e+001, 1.896682e+006
4.689050e+001, 1.896107e+006
4.692942e+001, 1.896625e+006
4.696834e+001, 1.899621e+006
4.700726e+001, 1.896173e+006
4.704618e+001, 1.897851e+006
4.708511e+001, 1.900215e+006
4.712402e+001, 1.896466e+006
4.716294e+001, 1.893602e+006
4.720187e+001, 1.893069e+006
4.724079e+001, 1.893831e+006
4.727971e+001, 1.894437e+006
4.731863e+001, 1.892306e+006
4.735755e+001, 1.889558e+006
4.739647e+001, 1.887265e+006
4.743539e+001, 1.888616e+006
4.747431e+001, 1.889069e+006
4.751323e+001, 1.889579e+006
4.755215e+001, 1.886308e+006
4.759107e+001, 1.885717e+006
4.762999e+001, 1.884096e+006
4.766891e+001, 1.885783e+006
4.770783e+001, 1.882886e+006
4.774676e+001, 1.880114e+006
4.778568e+001, 1.881105e+006
4.782460e+001, 1.882960e+006
4.786352e+001, 1.882164e+006
4.790244e+001, 1.881704e+006
4.794136e+001, 1.878242e+006
4.798028e+001, 1.878872e+006
4.801920e+001, 1.879305e+006
4.805812e+001, 1.881178e+006
4.809704e+001, 1.881458e+006
4.813596e+001, 1.881481e+006
4.817488e+001, 1.881761e+006
4.821380e+001, 1.881923e+006
4.825272e+001, 1.879631e+006
4.829165e+001, 1.879636e+006
4.833057e+001, 1.880865e+006
4.836948e+001, 1.881947e+006
4.840841e+001, 1.879497e+006
4.844733e+001, 1.877945e+006
4.848625e+001, 1.879772e+006
4.852517e+001, 1.879448e+006
4.856409e+001, 1.877286e+006
4.860301e+001, 1.877153e+006
4.864193e+001, 1.877547e+006
4.868085e+001, 1.879828e+006
4.871977e+001, 1.879552e+006
4.875869e+001, 1.875816e+006
4.879761e+001, 1.872669e+006
4.883653e+001, 1.870824e+006
4.887545e+001, 1.870532e+006
4.891438e+001, 1.869061e+006
4.895329e+001, 1.870803e+006
4.899221e+001, 1.870200e+006
4.903114e+001, 1.869254e+006
4.907006e+001, 1.865799e+006
4.910898e+001, 1.865494e+006
4.914790e+001, 1.866245e+006
4.918682e+001, 1.866052e+006
4.922574e+001, 1.863429e+006
4.926466e+001, 1.862471e+006
4.930358e+001, 1.857975e+006
4.934250e+001, 1.853301e+006
4.938142e+001, 1.851127e+006
4.942034e+001, 1.850728e+006
4.945926e+001, 1.848034e+006
4.949818e+001, 1.847629e+006
4.953710e+001, 1.847449e+006
4.957602e+001, 1.845102e+006
4.961494e+001, 1.843492e+006
4.965387e+001, 1.842472e+006
4.969279e+001, 1.841543e+006
4.973170e+001, 1.837365e+006
4.977063e+001, 1.834568e+006
4.980955e+001, 1.833264e+006
4.984847e+001, 1.830588e+006
4.988739e+001, 1.826393e+006
4.992631e+001, 1.823838e+006
4.996523e+001, 1.822405e+006
5.000415e+001, 1.820134e+006
5.004307e+001, 1.817329e+006
5.008199e+001, 1.811888e+006
5.012091e+001, 1.808123e+006
5.015983e+001, 1.806412e+006
5.019875e+001, 1.804415e+006
5.023767e+001, 1.802644e+006
5.027660e+001, 1.798745e+006
5.031551e+001, 1.796904e+006
5.035443e+001, 1.793011e+006
5.039336e+001, 1.788630e+006
5.043228e+001, 1.787175e+006
5.047120e+001, 1.784239e+006
5.051012e+001, 1.782045e+006
5.054904e+001, 1.780498e+006
5.058796e+001, 1.778858e+006
5.062688e+001, 1.776786e+006
5.066580e+001, 1.774326e+006
5.070472e+001, 1.768208e+006
5.074364e+001, 1.764561e+006
5.078256e+001, 1.763023e+006
5.082148e+001, 1.763562e+006
5.086040e+001, 1.758081e+006
5.089932e+001, 1.752011e+006
5.093824e+001, 1.751436e+006
5.097717e+001, 1.745840e+006
5.101609e+001, 1.743499e+006
5.105501e+001, 1.743445e+006
5.109393e+001, 1.743665e+006
5.113285e+001, 1.742994e+006
5.117177e+001, 1.739823e+006
5.121069e+001, 1.736454e+006
5.124961e+001, 1.734575e+006
5.128853e+001, 1.731718e+006
5.132745e+001, 1.728003e+006
5.136637e+001, 1.725496e+006
5.140529e+001, 1.721255e+006
5.144421e+001, 1.720694e+006
5.148313e+001, 1.720686e+006
5.152205e+001, 1.716537e+006
5.156097e+001, 1.715822e+006
5.159990e+001, 1.714419e+006
5.163882e+001, 1.712209e+006
5.167773e+001, 1.709534e+006
5.171666e+001, 1.704254e+006
5.175558e+001, 1.705865e+006
5.179450e+001, 1.707525e+006
5.183342e+001, 1.704167e+006
5.187234e+001, 1.700248e+006
5.191126e+001, 1.695381e+006
5.195018e+001, 1.692926e+006
5.198910e+001, 1.688883e+006
5.202802e+001, 1.688514e+006
5.206694e+001, 1.689836e+006
5.210586e+001, 1.690980e+006
5.214478e+001, 1.690893e+006
5.218370e+001, 1.691273e+006
5.222263e+001, 1.689008e+006
5.226154e+001, 1.687094e+006
5.230046e+001, 1.685698e+006
5.233939e+001, 1.686411e+006
5.237831e+001, 1.687708e+006
5.241723e+001, 1.686562e+006
5.245615e+001, 1.684765e+006
5.249507e+001, 1.685456e+006
5.253399e+001, 1.686503e+006
5.257291e+001, 1.686109e+006
5.261183e+001, 1.684709e+006
5.265075e+001, 1.686466e+006
5.268967e+001, 1.687522e+006
5.272859e+001, 1.688740e+006
5.276751e+001, 1.687372e+006
5.280643e+001, 1.689374e+006
5.284535e+001, 1.688684e+006
5.288427e+001, 1.687780e+006
5.292319e+001, 1.688645e+006
5.296212e+001, 1.689313e+006
5.300104e+001, 1.687732e+006
5.303996e+001, 1.690541e+006
5.307888e+001, 1.691674e+006
5.311780e+001, 1.690315e+006
5.315672e+001, 1.695258e+006
5.319564e+001, 1.694559e+006
5.323456e+001, 1.695384e+006
5.327348e+001, 1.696848e+006
5.331240e+001, 1.699940e+006
5.335132e+001, 1.702072e+006
5.339024e+001, 1.702756e+006
5.342916e+001, 1.702644e+006
5.346809e+001, 1.703159e+006
5.350700e+001, 1.705306e+006
5.354593e+001, 1.705308e+006
5.358485e+001, 1.710126e+006
5.362376e+001, 1.710651e+006
5.366269e+001, 1.712231e+006
5.370161e+001, 1.711071e+006
5.374053e+001, 1.713217e+006
5.377945e+001, 1.716877e+006
5.381837e+001, 1.718002e+006
5.385729e+001, 1.718373e+006
5.389621e+001, 1.722512e+006
5.393513e+001, 1.724534e+006
5.397405e+001, 1.725629e+006
5.401297e+001, 1.728713e+006
5.405190e+001, 1.728943e+006
5.409081e+001, 1.730328e+006
5.412973e+001, 1.731859e+006
5.416866e+001, 1.732453e+006
5.420758e+001, 1.732358e+006
5.424650e+001, 1.735125e+006
5.428542e+001, 1.735107e+006
5.432434e+001, 1.736619e+006
5.436326e+001, 1.737985e+006
5.440218e+001, 1.740027e+006
5.444110e+001, 1.745911e+006
5.448002e+001, 1.748890e+006
5.451894e+001, 1.752585e+006
5.455786e+001, 1.753009e+006
5.459678e+001, 1.756038e+006
5.463570e+001, 1.758604e+006
5.467462e+001, 1.758184e+006
5.471354e+001, 1.760626e+006
5.475246e+001, 1.764010e+006
5.479139e+001, 1.767673e+006
5.483031e+001, 1.772657e+006
5.486922e+001, 1.773879e+006
5.490815e+001, 1.774883e+006
5.494707e+001, 1.774422e+006
5.498599e+001, 1.775619e+006
5.502491e+001, 1.780301e+006
5.506383e+001, 1.780777e+006
5.510275e+001, 1.783243e+006
5.514167e+001, 1.784344e+006
5.518059e+001, 1.788299e+006
5.521951e+001, 1.790283e+006
5.525843e+001, 1.790954e+006
5.529735e+001, 1.792773e+006
5.533627e+001, 1.800967e+006
5.537519e+001, 1.805063e+006
5.541412e+001, 1.809325e+006
5.545303e+001, 1.811207e+006
5.549195e+001, 1.810695e+006
5.553088e+001, 1.811165e+006
5.556980e+001, 1.814588e+006
5.560872e+001, 1.817146e+006
5.564764e+001, 1.819589e+006
5.568656e+001, 1.821632e+006
5.572548e+001, 1.828194e+006
5.576440e+001, 1.829544e+006
5.580332e+001, 1.833587e+006
5.584224e+001, 1.836158e+006
5.588116e+001, 1.838420e+006
5.592008e+001, 1.841447e+006
5.595900e+001, 1.841650e+006
5.599792e+001, 1.845703e+006
5.603684e+001, 1.849858e+006
5.607576e+001, 1.854057e+006
5.611469e+001, 1.857617e+006
5.615361e+001, 1.859781e+006
5.619253e+001, 1.861823e+006
5.623145e+001, 1.866425e+006
5.627037e+001, 1.873036e+006
5.630929e+001, 1.876101e+006
5.634821e+001, 1.881193e+006
5.638713e+001, 1.884616e+006
5.642605e+001, 1.886638e+006
5.646497e+001, 1.892042e+006
5.650389e+001, 1.894357e+006
5.654281e+001, 1.898955e+006
5.658173e+001, 1.902963e+006
5.662065e+001, 1.906536e+006
5.665957e+001, 1.912077e+006
5.669849e+001, 1.916177e+006
5.673742e+001, 1.918767e+006
5.677634e+001, 1.919378e+006
5.681525e+001, 1.922958e+006
5.685418e+001, 1.926002e+006
5.689310e+001, 1.927082e+006
5.693202e+001, 1.928226e+006
5.697094e+001, 1.931792e+006
5.700986e+001, 1.932593e+006
5.704878e+001, 1.931573e+006
5.708770e+001, 1.935933e+006
5.712662e+001, 1.939075e+006
5.716554e+001, 1.942351e+006
5.720446e+001, 1.941656e+006
5.724339e+001, 1.944167e+006
5.728230e+001, 1.944961e+006
5.732122e+001, 1.943985e+006
5.736015e+001, 1.942423e+006
5.739906e+001, 1.940012e+006
5.743799e+001, 1.940182e+006
5.747691e+001, 1.940013e+006
5.751583e+001, 1.941428e+006
5.755475e+001, 1.941017e+006
5.759367e+001, 1.941764e+006
5.763259e+001, 1.941021e+006
5.767151e+001, 1.939652e+006
5.771043e+001, 1.938683e+006
5.774935e+001, 1.936776e+006
5.778827e+001, 1.931364e+006
5.782719e+001, 1.927537e+006
5.786611e+001, 1.924181e+006
5.790503e+001, 1.920065e+006
5.794395e+001, 1.916578e+006
5.798287e+001, 1.917488e+006
5.802180e+001, 1.912486e+006
5.806071e+001, 1.910788e+006
5.809964e+001, 1.910582e+006
5.813856e+001, 1.907216e+006
5.817747e+001, 1.901685e+006
5.821640e+001, 1.898828e+006
5.825532e+001, 1.897044e+006
5.829424e+001, 1.894191e+006
5.833316e+001, 1.890514e+006
5.837208e+001, 1.885865e+006
5.841100e+001, 1.883185e+006
5.844992e+001, 1.880911e+006
5.848884e+001, 1.877100e+006
5.852776e+001, 1.871320e+006
5.856668e+001, 1.864661e+006
5.860561e+001, 1.860937e+006
5.864452e+001, 1.857002e+006
5.868344e+001, 1.853844e+006
5.872237e+001, 1.851530e+006
5.876128e+001, 1.847766e+006
5.880021e+001, 1.841338e+006
5.883913e+001, 1.837642e+006
5.887805e+001, 1.833658e+006
5.891697e+001, 1.829531e+006
5.895589e+001, 1.823497e+006
5.899481e+001, 1.820327e+006
5.903373e+001, 1.817475e+006
5.907265e+001, 1.817130e+006
5.911157e+001, 1.808959e+006
5.915049e+001, 1.802389e+006
5.918941e+001, 1.799576e+006
5.922833e+001, 1.796581e+006
5.926725e+001, 1.792507e+006
5.930618e+001, 1.787444e+006
5.934509e+001, 1.782939e+006
5.938402e+001, 1.781180e+006
5.942294e+001, 1.778673e+006
5.946186e+001, 1.774620e+006
5.950078e+001, 1.769798e+006
5.953970e+001, 1.767419e+006
5.957862e+001, 1.764124e+006
5.961754e+001, 1.759260e+006
5.965646e+001, 1.756468e+006
5.969538e+001, 1.755521e+006
5.973430e+001, 1.751272e+006
5.977322e+001, 1.743599e+006
5.981214e+001, 1.737714e+006
5.985106e+001, 1.732572e+006
5.988998e+001, 1.730303e+006
5.992890e+001, 1.727698e+006
5.996783e+001, 1.724236e+006
6.000674e+001, 1.721163e+006
6.004567e+001, 1.717551e+006
6.008459e+001, 1.715999e+006
6.012350e+001, 1.712893e+006
6.016243e+001, 1.706788e+006
6.020135e+001, 1.704072e+006
6.024027e+001, 1.701057e+006
6.027919e+001, 1.697364e+006
6.031811e+001, 1.694397e+006
6.035703e+001, 1.691364e+006
6.039595e+001, 1.687451e+006
6.043487e+001, 1.682996e+006
6.047379e+001, 1.679952e+006
6.051271e+001, 1.677289e+006
6.055164e+001, 1.672660e+006
6.059055e+001, 1.670781e+006
6.062947e+001, 1.667419e+006
6.066840e+001, 1.663223e+006
6.070731e+001, 1.661146e+006
6.074624e+001, 1.656017e+006
6.078516e+001, 1.651756e+006
6.082408e+001, 1.649872e+006
6.086300e+001, 1.649519e+006
6.090192e+001, 1.646443e+006
6.094084e+001, 1.640385e+006
6.097976e+001, 1.638313e+006
6.101868e+001, 1.636319e+006
6.105760e+001, 1.633986e+006
6.109652e+001, 1.626771e+006
6.113544e+001, 1.623668e+006
6.117436e+001, 1.623641e+006
6.121328e+001, 1.618929e+006
6.125220e+001, 1.616193e+006
6.129113e+001, 1.612004e+006
6.133005e+001, 1.610506e+006
6.136897e+001, 1.608298e+006
6.140789e+001, 1.605834e+006
6.144681e+001, 1.603556e+006
6.148573e+001, 1.602716e+006
6.152465e+001, 1.598661e+006
6.156357e+001, 1.595624e+006
6.160249e+001, 1.592785e+006
6.164141e+001, 1.589157e+006
6.168033e+001, 1.585978e+006
6.171925e+001, 1.579329e+006
6.175817e+001, 1.576370e+006
6.179709e+001, 1.576003e+006
6.183601e+001, 1.574298e+006
6.187494e+001, 1.574128e+006
6.191386e+001, 1.572609e+006
6.195277e+001, 1.567652e+006
6.199170e+001, 1.563954e+006
6.203062e+001, 1.560804e+006
6.206954e+001, 1.557164e+006
6.210846e+001, 1.552225e+006
6.214738e+001, 1.550952e+006
6.218630e+001, 1.549488e+006
6.222522e+001, 1.545611e+006
6.226414e+001, 1.545410e+006
6.230306e+001, 1.542655e+006
6.234198e+001, 1.539065e+006
6.238090e+001, 1.534942e+006
6.241982e+001, 1.531868e+006
6.245874e+001, 1.529876e+006
6.249767e+001, 1.529081e+006
6.253658e+001, 1.525789e+006
6.257550e+001, 1.523910e+006
6.261443e+001, 1.522569e+006
6.265335e+001, 1.520129e+006
6.269227e+001, 1.516921e+006
6.273119e+001, 1.515476e+006
6.277011e+001, 1.512490e+006
6.280903e+001, 1.512426e+006
6.284795e+001, 1.509524e+006
6.288687e+001, 1.506318e+006
6.292579e+001, 1.503941e+006
6.296471e+001, 1.502916e+006
6.300363e+001, 1.498289e+006
6.304255e+001, 1.496298e+006
6.308147e+001, 1.494231e+006
6.312039e+001, 1.490119e+006
6.315932e+001, 1.487381e+006
6.319823e+001, 1.485672e+006
6.323716e+001, 1.483316e+006
6.327608e+001, 1.482373e+006
6.331499e+001, 1.480030e+006
6.335392e+001, 1.477997e+006
6.339284e+001, 1.474081e+006
6.343176e+001, 1.473858e+006
6.347068e+001, 1.471455e+006
6.350960e+001, 1.469256e+006
6.354852e+001, 1.466161e+006
6.358744e+001, 1.464764e+006
6.362636e+001, 1.462504e+006
6.366528e+001, 1.460144e+006
6.370420e+001, 1.457172e+006
6.374313e+001, 1.453414e+006
6.378204e+001, 1.450880e+006
6.382096e+001, 1.448850e+006
6.385989e+001, 1.447157e+006
6.389880e+001, 1.444020e+006
6.393773e+001, 1.445025e+006
6.397665e+001, 1.442499e+006
6.401556e+001, 1.441222e+006
6.405449e+001, 1.439457e+006
6.409341e+001, 1.437647e+006
6.413233e+001, 1.433518e+006
6.417125e+001, 1.431990e+006
6.421017e+001, 1.433287e+006
6.424909e+001, 1.432992e+006
6.428801e+001, 1.430582e+006
6.432693e+001, 1.426663e+006
6.436585e+001, 1.425256e+006
6.440477e+001, 1.422592e+006
6.444370e+001, 1.417892e+006
6.448261e+001, 1.413087e+006
6.452154e+001, 1.411803e+006
6.456046e+001, 1.412354e+006
6.459938e+001, 1.411710e+006
6.463830e+001, 1.408652e+006
6.467722e+001, 1.407068e+006
6.471614e+001, 1.406291e+006
6.475506e+001, 1.404309e+006
6.479398e+001, 1.402967e+006
6.483290e+001, 1.399439e+006
6.487182e+001, 1.397518e+006
6.491074e+001, 1.396631e+006
6.494966e+001, 1.395190e+006
6.498859e+001, 1.392488e+006
6.502750e+001, 1.390308e+006
6.506642e+001, 1.390162e+006
6.510535e+001, 1.389358e+006
6.514426e+001, 1.387550e+006
6.518318e+001, 1.385469e+006
6.522211e+001, 1.383463e+006
6.526102e+001, 1.379810e+006
6.529995e+001, 1.373426e+006
6.533887e+001, 1.372801e+006
6.537779e+001, 1.373231e+006
6.541671e+001, 1.369232e+006
6.545563e+001, 1.368860e+006
6.549455e+001, 1.368497e+006
6.553347e+001, 1.367078e+006
6.557239e+001, 1.363008e+006
6.561131e+001, 1.360040e+006
6.565023e+001, 1.358521e+006
6.568916e+001, 1.360181e+006
6.572807e+001, 1.357202e+006
6.576700e+001, 1.354253e+006
6.580592e+001, 1.352660e+006
6.584483e+001, 1.352231e+006
6.588376e+001, 1.352339e+006
6.592268e+001, 1.346808e+006
6.596159e+001, 1.344810e+006
6.600052e+001, 1.344348e+006
6.603944e+001, 1.341911e+006
6.607836e+001, 1.337751e+006
6.611728e+001, 1.335273e+006
6.615620e+001, 1.330865e+006
6.619512e+001, 1.331809e+006
6.623404e+001, 1.332032e+006
6.627296e+001, 1.330431e+006
6.631188e+001, 1.330025e+006
6.635080e+001, 1.326445e+006
6.638972e+001, 1.326356e+006
6.642864e+001, 1.323502e+006
6.646757e+001, 1.321828e+006
6.650648e+001, 1.318870e+006
6.654541e+001, 1.316739e+006
6.658433e+001, 1.313687e+006
6.662325e+001, 1.314416e+006
6.666217e+001, 1.311571e+006
6.670109e+001, 1.308525e+006
6.674001e+001, 1.306494e+006
6.677893e+001, 1.304989e+006
6.681785e+001, 1.304764e+006
6.685677e+001, 1.303717e+006
6.689569e+001, 1.304144e+006
6.693462e+001, 1.300899e+006
6.697353e+001, 1.298956e+006
6.701245e+001, 1.297896e+006
6.705138e+001, 1.296299e+006
6.709029e+001, 1.294192e+006
6.712921e+001, 1.293629e+006
6.716814e+001, 1.294023e+006
6.720706e+001, 1.293003e+006
6.724598e+001, 1.291715e+006
6.728490e+001, 1.288161e+006
6.732382e+001, 1.285372e+006
6.736274e+001, 1.282536e+006
6.740166e+001, 1.279951e+006
6.744058e+001, 1.276845e+006
6.747950e+001, 1.273946e+006
6.751842e+001, 1.273258e+006
6.755734e+001, 1.271034e+006
6.759627e+001, 1.269746e+006
6.763519e+001, 1.271039e+006
6.767410e+001, 1.270826e+006
6.771303e+001, 1.269591e+006
6.775195e+001, 1.267506e+006
6.779086e+001, 1.265568e+006
6.782979e+001, 1.264558e+006
6.786871e+001, 1.262723e+006
6.790762e+001, 1.261755e+006
6.794655e+001, 1.260596e+006
6.798547e+001, 1.259037e+006
6.802439e+001, 1.257231e+006
6.806331e+001, 1.256695e+006
6.810223e+001, 1.255101e+006
6.814115e+001, 1.254772e+006
6.818007e+001, 1.251185e+006
6.821899e+001, 1.246875e+006
6.825791e+001, 1.242531e+006
6.829683e+001, 1.239894e+006
6.833575e+001, 1.240956e+006
6.837468e+001, 1.240110e+006
6.841360e+001, 1.236950e+006
6.845251e+001, 1.234204e+006
6.849144e+001, 1.233162e+006
6.853036e+001, 1.232714e+006
6.856927e+001, 1.230287e+006
6.860820e+001, 1.229780e+006
6.864712e+001, 1.229641e+006
6.868604e+001, 1.227509e+006
6.872496e+001, 1.228325e+006
6.876389e+001, 1.227292e+006
6.880280e+001, 1.227138e+006
6.884172e+001, 1.226010e+006
6.888065e+001, 1.223672e+006
6.891956e+001, 1.221112e+006
6.895848e+001, 1.218653e+006
6.899741e+001, 1.216882e+006
6.903632e+001, 1.214142e+006
6.907525e+001, 1.214132e+006
6.911417e+001, 1.214908e+006
6.915309e+001, 1.212678e+006
6.919201e+001, 1.211589e+006
6.923093e+001, 1.211083e+006
6.926985e+001, 1.210676e+006
6.930877e+001, 1.208645e+006
6.934769e+001, 1.207362e+006
6.938661e+001, 1.202184e+006
6.942553e+001, 1.199729e+006
6.946445e+001, 1.198701e+006
6.950337e+001, 1.198068e+006
6.954230e+001, 1.195168e+006
6.958121e+001, 1.195171e+006
6.962013e+001, 1.193890e+006
6.965906e+001, 1.192450e+006
6.969798e+001, 1.192616e+006
6.973689e+001, 1.192785e+006
6.977582e+001, 1.192670e+006
6.981474e+001, 1.191584e+006
6.985366e+001, 1.189174e+006
6.989258e+001, 1.186499e+006
6.993150e+001, 1.185535e+006
6.997042e+001, 1.185014e+006
7.000934e+001, 1.182413e+006
7.004826e+001, 1.179350e+006
7.008718e+001, 1.180951e+006
7.012610e+001, 1.177854e+006
7.016502e+001, 1.174657e+006
7.020394e+001, 1.173986e+006
7.024287e+001, 1.173551e+006
7.028178e+001, 1.169990e+006
7.032071e+001, 1.169601e+006
7.035963e+001, 1.170842e+006
7.039854e+001, 1.169383e+006
7.043747e+001, 1.166194e+006
7.047639e+001, 1.165795e+006
7.051530e+001, 1.165575e+006
7.055423e+001, 1.163215e+006
7.059315e+001, 1.161979e+006
7.063207e+001, 1.162524e+006
7.067099e+001, 1.160756e+006
7.070992e+001, 1.158099e+006
7.074883e+001, 1.156723e+006
7.078775e+001, 1.156228e+006
7.082668e+001, 1.154967e+006
7.086559e+001, 1.151363e+006
7.090451e+001, 1.151025e+006
7.094344e+001, 1.149285e+006
7.098235e+001, 1.147755e+006
7.102128e+001, 1.147389e+006
7.106020e+001, 1.147145e+006
7.109912e+001, 1.145957e+006
7.113804e+001, 1.144424e+006
7.117696e+001, 1.142901e+006
7.121588e+001, 1.141923e+006
7.125480e+001, 1.140335e+006
7.129372e+001, 1.136281e+006
7.133264e+001, 1.134717e+006
7.137157e+001, 1.133786e+006
7.141048e+001, 1.133240e+006
7.144940e+001, 1.135476e+006
7.148833e+001, 1.133074e+006
7.152724e+001, 1.130194e+006
7.156616e+001, 1.126019e+006
7.160509e+001, 1.126233e+006
7.164400e+001, 1.125077e+006
7.168292e+001, 1.126083e+006
7.172185e+001, 1.125893e+006
7.176077e+001, 1.122754e+006
7.179968e+001, 1.121541e+006
7.183861e+001, 1.121099e+006
7.187753e+001, 1.120802e+006
7.191645e+001, 1.118166e+006
7.195537e+001, 1.118548e+006
7.199429e+001, 1.116328e+006
7.203321e+001, 1.115503e+006
7.207213e+001, 1.113657e+006
7.211105e+001, 1.111413e+006
7.214998e+001, 1.107784e+006
7.218890e+001, 1.106612e+006
7.222781e+001, 1.108877e+006
7.226674e+001, 1.107783e+006
7.230566e+001, 1.106261e+006
7.234457e+001, 1.104025e+006
7.238350e+001, 1.101669e+006
7.242242e+001, 1.097783e+006
7.246133e+001, 1.097335e+006
7.250026e+001, 1.096469e+006
7.253918e+001, 1.094006e+006
7.257810e+001, 1.093208e+006
7.261702e+001, 1.092970e+006
7.265594e+001, 1.092254e+006
7.269486e+001, 1.089982e+006
7.273378e+001, 1.089155e+006
7.277271e+001, 1.088593e+006
7.281162e+001, 1.088719e+006
7.285054e+001, 1.086469e+006
7.288947e+001, 1.083985e+006
7.292839e+001, 1.081635e+006
7.296731e+001, 1.082013e+006
7.300623e+001, 1.081330e+006
7.304515e+001, 1.080143e+006
7.308407e+001, 1.080178e+006
7.312299e+001, 1.079049e+006
7.316191e+001, 1.075625e+006
7.320083e+001, 1.074185e+006
7.323975e+001, 1.072025e+006
7.327867e+001, 1.070703e+006
7.331760e+001, 1.069214e+006
7.335651e+001, 1.069198e+006
7.339543e+001, 1.069466e+006
7.343436e+001, 1.070524e+006
7.347327e+001, 1.066763e+006
7.351219e+001, 1.063190e+006
7.355112e+001, 1.061286e+006
7.359003e+001, 1.060737e+006
7.362895e+001, 1.060168e+006
7.366788e+001, 1.058405e+006
7.370680e+001, 1.058092e+006
7.374572e+001, 1.055619e+006
7.378464e+001, 1.055895e+006
7.382356e+001, 1.054707e+006
7.386248e+001, 1.052927e+006
7.390140e+001, 1.052109e+006
7.394032e+001, 1.050975e+006
7.397924e+001, 1.049237e+006
7.401816e+001, 1.047595e+006
7.405708e+001, 1.047617e+006
7.409601e+001, 1.045317e+006
7.413493e+001, 1.043122e+006
7.417384e+001, 1.043051e+006
7.421277e+001, 1.040032e+006
7.425169e+001, 1.040236e+006
7.429060e+001, 1.039917e+006
7.432953e+001, 1.036168e+006
7.436845e+001, 1.035782e+006
7.440736e+001, 1.033458e+006
7.444629e+001, 1.031432e+006
7.448521e+001, 1.033320e+006
7.452413e+001, 1.031835e+006
7.456305e+001, 1.028815e+006
7.460197e+001, 1.028631e+006
7.464089e+001, 1.027239e+006
7.467981e+001, 1.024236e+006
7.471873e+001, 1.023516e+006
7.475766e+001, 1.020742e+006
7.479657e+001, 1.019908e+006
7.483549e+001, 1.021917e+006
7.487442e+001, 1.022769e+006
7.491334e+001, 1.021868e+006
7.495226e+001, 1.018768e+006
7.499118e+001, 1.017959e+006
7.503010e+001, 1.016838e+006
7.506902e+001, 1.015157e+006
7.510794e+001, 1.012300e+006
7.514687e+001, 1.009483e+006
7.518578e+001, 1.008947e+006
7.522470e+001, 1.006039e+006
7.526363e+001, 1.005874e+006
7.530254e+001, 1.005303e+006
7.534146e+001, 1.004708e+006
7.538039e+001, 1.003461e+006
7.541930e+001, 1.002239e+006
7.545822e+001, 1.001649e+006
7.549715e+001, 1.000455e+006
7.553607e+001, 9.993382e+005
7.557498e+001, 9.981638e+005
7.561391e+001, 9.963784e+005
7.565283e+001, 9.951422e+005
7.569175e+001, 9.949281e+005
7.573067e+001, 9.932156e+005
7.576959e+001, 9.926343e+005
7.580851e+001, 9.903388e+005
7.584743e+001, 9.879384e+005
7.588635e+001, 9.871566e+005
7.592528e+001, 9.849747e+005
7.596419e+001, 9.832136e+005
7.600311e+001, 9.821750e+005
7.604204e+001, 9.804389e+005
7.608096e+001, 9.822351e+005
7.611987e+001, 9.794940e+005
7.615880e+001, 9.779431e+005
7.619772e+001, 9.774431e+005
7.623663e+001, 9.750630e+005
7.627556e+001, 9.757082e+005
7.631448e+001, 9.766411e+005
7.635339e+001, 9.739397e+005
7.639232e+001, 9.710673e+005
7.643124e+001, 9.710238e+005
7.647016e+001, 9.712850e+005
7.650908e+001, 9.683932e+005
7.654800e+001, 9.676581e+005
7.658692e+001, 9.671891e+005
7.662584e+001, 9.669826e+005
7.666476e+001, 9.660521e+005
7.670369e+001, 9.640264e+005
7.674260e+001, 9.628283e+005
7.678152e+001, 9.610254e+005
7.682045e+001, 9.598098e+005
7.685937e+001, 9.602086e+005
7.689828e+001, 9.601834e+005
7.693721e+001, 9.604016e+005
7.697613e+001, 9.579744e+005
7.701505e+001, 9.553989e+005
7.705397e+001, 9.548563e+005
7.709290e+001, 9.547623e+005
7.713181e+001, 9.543953e+005
7.717073e+001, 9.538660e+005
7.720966e+001, 9.511779e+005
7.724857e+001, 9.486949e+005
7.728749e+001, 9.476014e+005
7.732642e+001, 9.462728e+005
7.736533e+001, 9.444752e+005
7.740425e+001, 9.442081e+005
7.744318e+001, 9.420293e+005
7.748210e+001, 9.406753e+005
7.752101e+001, 9.400448e+005
7.755994e+001, 9.391153e+005
7.759886e+001, 9.394801e+005
7.763778e+001, 9.384563e+005
7.767670e+001, 9.375623e+005
7.771562e+001, 9.362914e+005
7.775454e+001, 9.333806e+005
7.779346e+001, 9.319283e+005
7.783238e+001, 9.309550e+005
7.787131e+001, 9.322146e+005
7.791022e+001, 9.315641e+005
7.794914e+001, 9.296459e+005
7.798807e+001, 9.276699e+005
7.802699e+001, 9.269134e+005
7.806590e+001, 9.256308e+005
7.810483e+001, 9.249631e+005
7.814375e+001, 9.247363e+005
7.818266e+001, 9.250681e+005
7.822159e+001, 9.215433e+005
7.826051e+001, 9.191439e+005
7.829943e+001, 9.192176e+005
7.833835e+001, 9.199159e+005
7.837727e+001, 9.187315e+005
7.841619e+001, 9.173241e+005
7.845511e+001, 9.156720e+005
7.849403e+001, 9.142553e+005
7.853295e+001, 9.119474e+005
7.857187e+001, 9.118342e+005
7.861079e+001, 9.109938e+005
7.864972e+001, 9.113198e+005
7.868864e+001, 9.110859e+005
7.872755e+001, 9.109677e+005
7.876648e+001, 9.095643e+005
7.880540e+001, 9.075694e+005
7.884431e+001, 9.052749e+005
7.888324e+001, 9.031761e+005
7.892216e+001, 9.039464e+005
7.896107e+001, 9.027501e+005
7.900000e+001, 9.025515e+005
7.903893e+001, 9.008381e+005
7.907784e+001, 8.983541e+005
7.911676e+001, 8.982056e+005
7.915569e+001, 8.980324e+005
7.919460e+001, 8.975879e+005
7.923352e+001, 8.959279e+005
7.927245e+001, 8.941222e+005
7.931136e+001, 8.940148e+005
7.935028e+001, 8.948996e+005
7.938921e+001, 8.928344e+005
7.942813e+001, 8.914496e+005
7.946705e+001, 8.913661e+005
7.950597e+001, 8.909617e+005
7.954489e+001, 8.911779e+005
7.958381e+001, 8.890896e+005
7.962273e+001, 8.857539e+005
7.966165e+001, 8.863534e+005
7.970057e+001, 8.863801e+005
7.973949e+001, 8.843971e+005
7.977841e+001, 8.823588e+005
7.981734e+001, 8.802783e+005
7.985625e+001, 8.792951e+005
7.989517e+001, 8.801465e+005
7.993410e+001, 8.783919e+005
7.997301e+001, 8.776792e+005
8.001193e+001, 8.766825e+005
8.005086e+001, 8.760993e+005
8.008978e+001, 8.744467e+005
8.012869e+001, 8.735304e+005
8.016762e+001, 8.739023e+005
8.020654e+001, 8.713578e+005
8.024546e+001, 8.696355e+005
8.028438e+001, 8.689922e+005
8.032330e+001, 8.694450e+005
8.036222e+001, 8.700027e+005
8.040114e+001, 8.687512e+005
8.044006e+001, 8.685431e+005
8.047899e+001, 8.665159e+005
8.051790e+001, 8.638926e+005
8.055682e+001, 8.611171e+005
8.059575e+001, 8.611868e+005
8.063467e+001, 8.600851e+005
8.067358e+001, 8.601141e+005
8.071251e+001, 8.594045e+005
8.075143e+001, 8.571121e+005
8.079034e+001, 8.562342e+005
8.082927e+001, 8.546054e+005
8.086819e+001, 8.522783e+005
8.090710e+001, 8.519792e+005
8.094603e+001, 8.523339e+005
8.098495e+001, 8.523408e+005
8.102387e+001, 8.511150e+005
8.106279e+001, 8.512586e+005
8.110172e+001, 8.507413e+005
8.114063e+001, 8.491791e+005
8.117955e+001, 8.499716e+005
8.121848e+001, 8.504343e+005
8.125740e+001, 8.490316e+005
8.129631e+001, 8.470059e+005
8.133524e+001, 8.463663e+005
8.137416e+001, 8.454779e+005
8.141308e+001, 8.429682e+005
8.145200e+001, 8.409628e+005
8.149092e+001, 8.401064e+005
8.152984e+001, 8.406659e+005
8.156876e+001, 8.421240e+005
8.160768e+001, 8.426836e+005
8.164661e+001, 8.428989e+005
8.168552e+001, 8.414118e+005
8.172444e+001, 8.402313e+005
8.176337e+001, 8.390425e+005
8.180228e+001, 8.386146e+005
8.184120e+001, 8.392331e+005
8.188013e+001, 8.389334e+005
8.191904e+001, 8.353546e+005
8.195796e+001, 8.338132e+005
8.199689e+001, 8.333838e+005
8.203581e+001, 8.325767e+005
8.207472e+001, 8.315960e+005
8.211365e+001, 8.304986e+005
8.215257e+001, 8.301856e+005
8.219149e+001, 8.284084e+005
8.223041e+001, 8.281890e+005
8.226933e+001, 8.285103e+005
8.230825e+001, 8.282768e+005
8.234717e+001, 8.256906e+005
8.238609e+001, 8.236362e+005
8.242502e+001, 8.230480e+005
8.246393e+001, 8.207981e+005
8.250285e+001, 8.203013e+005
8.254178e+001, 8.209081e+005
8.258070e+001, 8.214244e+005
8.261961e+001, 8.207752e+005
8.265854e+001, 8.199554e+005
8.269746e+001, 8.184139e+005
8.273637e+001, 8.161981e+005
8.277530e+001, 8.157618e+005
8.281422e+001, 8.158025e+005
8.285313e+001, 8.147648e+005
8.289206e+001, 8.133841e+005
8.293098e+001, 8.132216e+005
8.296990e+001, 8.129120e+005
8.300882e+001, 8.144443e+005
8.304774e+001, 8.137499e+005
8.308666e+001, 8.130623e+005
8.312558e+001, 8.104601e+005
8.316451e+001, 8.079433e+005
8.320343e+001, 8.079084e+005
8.324234e+001, 8.069384e+005
8.328127e+001, 8.066736e+005
8.332019e+001, 8.070287e+005
8.335911e+001, 8.048983e+005
8.339803e+001, 8.045508e+005
8.343695e+001, 8.030096e+005
8.347587e+001, 8.037903e+005
8.351479e+001, 8.051193e+005
8.355371e+001, 8.027021e+005
8.359264e+001, 8.014367e+005
8.363155e+001, 7.985564e+005
8.367047e+001, 7.973041e+005
8.370940e+001, 7.961485e+005
8.374831e+001, 7.957936e+005
8.378723e+001, 7.944490e+005
8.382616e+001, 7.951974e+005
8.386507e+001, 7.938056e+005
8.390399e+001, 7.926636e+005
8.394292e+001, 7.920504e+005
8.398184e+001, 7.929776e+005
8.402076e+001, 7.913423e+005
8.405968e+001, 7.897793e+005
8.409860e+001, 7.884915e+005
8.413752e+001, 7.868626e+005
8.417644e+001, 7.864639e+005
8.421536e+001, 7.858317e+005
8.425428e+001, 7.841996e+005
8.429320e+001, 7.831808e+005
8.433212e+001, 7.837954e+005
8.437105e+001, 7.832494e+005
8.440997e+001, 7.821762e+005
8.444888e+001, 7.828766e+005
8.448781e+001, 7.834394e+005
8.452673e+001, 7.827858e+005
8.456564e+001, 7.814945e+005
8.460457e+001, 7.813210e+005
8.464349e+001, 7.806693e+005
8.468240e+001, 7.790223e+005
8.472133e+001, 7.749568e+005
8.476025e+001, 7.735651e+005
8.479917e+001, 7.733569e+005
8.483809e+001, 7.727002e+005
8.487701e+001, 7.715372e+005
8.491593e+001, 7.717104e+005
8.495485e+001, 7.709595e+005
8.499377e+001, 7.708989e+005
8.503269e+001, 7.715521e+005
8.507161e+001, 7.704733e+005
8.511053e+001, 7.702494e+005
8.514946e+001, 7.690334e+005
8.518838e+001, 7.662006e+005
8.522729e+001, 7.661761e+005
8.526622e+001, 7.665752e+005
8.530514e+001, 7.658685e+005
8.534406e+001, 7.643877e+005
8.538298e+001, 7.630883e+005
8.542190e+001, 7.619734e+005
8.546082e+001, 7.606717e+005
8.549974e+001, 7.607337e+005
8.553867e+001, 7.610158e+005
8.557758e+001, 7.598814e+005
8.561650e+001, 7.591081e+005
8.565543e+001, 7.583209e+005
8.569434e+001, 7.575971e+005
8.573326e+001, 7.564327e+005
8.577219e+001, 7.552382e+005
8.581110e+001, 7.545263e+005
8.585002e+001, 7.556978e+005
8.588895e+001, 7.549168e+005
8.592787e+001, 7.538491e+005
8.596679e+001, 7.538405e+005
8.600571e+001, 7.520246e+005
8.604463e+001, 7.506418e+005
8.608355e+001, 7.490119e+005
8.612247e+001, 7.486636e+005
8.616139e+001, 7.483538e+005
8.620032e+001, 7.477774e+005
8.623923e+001, 7.489501e+005
8.627815e+001, 7.483212e+005
8.631708e+001, 7.474509e+005
8.635600e+001, 7.451441e+005
8.639491e+001, 7.454634e+005
8.643384e+001, 7.449093e+005
8.647276e+001, 7.433094e+005
8.651167e+001, 7.411579e+005
8.655060e+001, 7.405766e+005
8.658952e+001, 7.388987e+005
8.662843e+001, 7.386313e+005
8.666736e+001, 7.391238e+005
8.670628e+001, 7.401279e+005
8.674520e+001, 7.389341e+005
8.678412e+001, 7.374366e+005
8.682304e+001, 7.360831e+005
8.686196e+001, 7.338869e+005
8.690088e+001, 7.336237e+005
8.693980e+001, 7.345370e+005
8.697873e+001, 7.324778e+005
8.701764e+001, 7.310363e+005
8.705656e+001, 7.299341e+005
8.709549e+001, 7.292838e+005
8.713441e+001, 7.303196e+005
8.717332e+001, 7.295624e+005
8.721225e+001, 7.284864e+005
8.725117e+001, 7.288576e+005
8.729008e+001, 7.280856e+005
8.732901e+001, 7.278057e+005
8.736794e+001, 7.278412e+005
8.740685e+001, 7.258866e+005
8.744577e+001, 7.255141e+005
8.748470e+001, 7.239513e+005
8.752361e+001, 7.225182e+005
8.756253e+001, 7.205511e+005
8.760146e+001, 7.212773e+005
8.764037e+001, 7.206038e+005
8.767929e+001, 7.194969e+005
8.771822e+001, 7.188996e+005
8.775714e+001, 7.192231e+005
8.779605e+001, 7.191193e+005
8.783498e+001, 7.187199e+005
8.787390e+001, 7.170824e+005
8.791282e+001, 7.151588e+005
8.795174e+001, 7.147859e+005
8.799066e+001, 7.148076e+005
8.802958e+001, 7.137928e+005
8.806850e+001, 7.143178e+005
8.810742e+001, 7.138191e+005
8.814635e+001, 7.136139e+005
8.818526e+001, 7.126168e+005
8.822418e+001, 7.112505e+005
8.826311e+001, 7.107321e+005
8.830202e+001, 7.084871e+005
8.834094e+001, 7.077603e+005
8.837987e+001, 7.092181e+005
8.841879e+001, 7.087024e+005
8.845770e+001, 7.073456e+005
8.849663e+001, 7.079633e+005
8.853555e+001, 7.068981e+005
8.857446e+001, 7.052320e+005
8.861339e+001, 7.039923e+005
8.865231e+001, 7.032468e+005
8.869123e+001, 7.019249e+005
8.873015e+001, 7.024189e+005
8.876907e+001, 7.007515e+005
8.880799e+001, 6.996576e+005
8.884691e+001, 6.992708e+005
8.888583e+001, 6.991699e+005
8.892476e+001, 7.012503e+005
8.896368e+001, 6.997426e+005
8.900259e+001, 6.982656e+005
8.904152e+001, 6.975062e+005
8.908044e+001, 6.963198e+005
8.911935e+001, 6.972255e+005
8.915828e+001, 6.979914e+005
8.919720e+001, 6.961543e+005
8.923611e+001, 6.934926e+005
8.927504e+001, 6.942094e+005
8.931396e+001, 6.934377e+005
8.935288e+001, 6.924748e+005
8.939180e+001, 6.912669e+005
8.943073e+001, 6.914384e+005
8.946964e+001, 6.908272e+005
8.950856e+001, 6.905311e+005
8.954749e+001, 6.903151e+005
8.958640e+001, 6.898466e+005
8.962532e+001, 6.892293e+005
8.966425e+001, 6.899448e+005
8.970317e+001, 6.876514e+005
8.974209e+001, 6.852016e+005
8.978101e+001, 6.847076e+005
8.981993e+001, 6.831555e+005
8.985885e+001, 6.829838e+005
8.989777e+001, 6.829411e+005
8.993669e+001, 6.814351e+005
8.997561e+001, 6.808056e+005
9.001453e+001, 6.803354e+005
9.005345e+001, 6.803673e+005
9.009238e+001, 6.790258e+005
9.013129e+001, 6.775274e+005
9.017021e+001, 6.791118e+005
9.020914e+001, 6.790379e+005
9.024805e+001, 6.781948e+005
9.028697e+001, 6.770789e+005
9.032590e+001, 6.772737e+005
9.036481e+001, 6.772141e+005
9.040373e+001, 6.747014e+005
9.044266e+001, 6.753023e+005
9.048158e+001, 6.741231e+005
9.052050e+001, 6.736977e+005
9.055942e+001, 6.756288e+005
9.059834e+001, 6.737696e+005
9.063726e+001, 6.713718e+005
9.067618e+001, 6.716603e+005
9.071510e+001, 6.697387e+005
9.075402e+001, 6.691211e+005
9.079294e+001, 6.676585e+005
9.083186e+001, 6.668119e+005
9.087079e+001, 6.671520e+005
9.090971e+001, 6.675851e+005
9.094862e+001, 6.656329e+005
9.098755e+001, 6.650991e+005
9.102647e+001, 6.661384e+005
9.106538e+001, 6.653306e+005
9.110431e+001, 6.651446e+005
9.114323e+001, 6.643848e+005
9.118214e+001, 6.632737e+005
9.122107e+001, 6.636397e+005
9.125999e+001, 6.616453e+005
9.129891e+001, 6.601334e+005
9.133783e+001, 6.606226e+005
9.137675e+001, 6.603411e+005
9.141567e+001, 6.591341e+005
9.145459e+001, 6.592713e+005
9.149352e+001, 6.579142e+005
9.153243e+001, 6.575612e+005
9.157135e+001, 6.564206e+005
9.161028e+001, 6.549753e+005
9.164920e+001, 6.541200e+005
9.168812e+001, 6.527896e+005
9.172704e+001, 6.516908e+005
9.176596e+001, 6.515489e+005
9.180488e+001, 6.497994e+005
9.184380e+001, 6.516529e+005
9.188272e+001, 6.524514e+005
9.192165e+001, 6.513524e+005
9.196056e+001, 6.504583e+005
9.199948e+001, 6.494418e+005
9.203841e+001, 6.487179e+005
9.207732e+001, 6.488831e+005
9.211624e+001, 6.486318e+005
9.215517e+001, 6.474632e+005
9.219408e+001, 6.478501e+005
9.223300e+001, 6.463853e+005
9.227193e+001, 6.453363e+005
9.231085e+001, 6.456184e+005
9.234976e+001, 6.442893e+005
9.238869e+001, 6.441539e+005
9.242761e+001, 6.428257e+005
9.246653e+001, 6.411925e+005
9.250545e+001, 6.395993e+005
9.254437e+001, 6.390015e+005
9.258329e+001, 6.394488e+005
9.262221e+001, 6.401586e+005
9.266113e+001, 6.401531e+005
9.270006e+001, 6.388886e+005
9.273897e+001, 6.363539e+005
9.277789e+001, 6.360687e+005
9.281682e+001, 6.363651e+005
9.285574e+001, 6.364440e+005
9.289465e+001, 6.362786e+005
9.293358e+001, 6.351593e+005
9.297250e+001, 6.318373e+005
9.301141e+001, 6.315255e+005
9.305034e+001, 6.318545e+005
9.308926e+001, 6.312589e+005
9.312817e+001, 6.316454e+005
9.316710e+001, 6.308423e+005
9.320602e+001, 6.309663e+005
9.324494e+001, 6.299950e+005
9.328386e+001, 6.287572e+005
9.332278e+001, 6.294003e+005
9.336170e+001, 6.291273e+005
9.340062e+001, 6.279258e+005
9.343954e+001, 6.261477e+005
9.347847e+001, 6.243901e+005
9.351738e+001, 6.235171e+005
9.355630e+001, 6.229843e+005
9.359523e+001, 6.236553e+005
9.363415e+001, 6.231476e+005
9.367307e+001, 6.227941e+005
9.371199e+001, 6.228573e+005
9.375091e+001, 6.230561e+005
9.378983e+001, 6.221238e+005
9.382875e+001, 6.211620e+005
9.386768e+001, 6.186846e+005
9.390659e+001, 6.188055e+005
9.394551e+001, 6.180284e+005
9.398444e+001, 6.189990e+005
9.402335e+001, 6.181684e+005
9.406227e+001, 6.176163e+005
9.410120e+001, 6.154981e+005
9.414011e+001, 6.149109e+005
9.417903e+001, 6.148214e+005
9.421796e+001, 6.151121e+005
9.425688e+001, 6.147582e+005
9.429579e+001, 6.125169e+005
9.433472e+001, 6.117173e+005
9.437364e+001, 6.118618e+005
9.441256e+001, 6.101175e+005
9.445148e+001, 6.096060e+005
9.449040e+001, 6.091521e+005
9.452932e+001, 6.098352e+005
9.456824e+001, 6.090261e+005
9.460716e+001, 6.071531e+005
9.464609e+001, 6.064307e+005
9.468501e+001, 6.062863e+005
9.472392e+001, 6.069140e+005
9.476285e+001, 6.051815e+005
9.480177e+001, 6.060730e+005
9.484068e+001, 6.051416e+005
9.487961e+001, 6.041081e+005
9.491853e+001, 6.025440e+005
9.495744e+001, 6.009546e+005
9.499637e+001, 6.009173e+005
9.503529e+001, 6.009230e+005
9.507421e+001, 6.004376e+005
9.511313e+001, 5.997886e+005
9.515205e+001, 5.979019e+005
9.519097e+001, 5.972858e+005
9.522989e+001, 5.966999e+005
9.526881e+001, 5.947958e+005
9.530773e+001, 5.948171e+005
9.534665e+001, 5.950561e+005
9.538557e+001, 5.942676e+005
9.542450e+001, 5.945302e+005
9.546342e+001, 5.935549e+005
9.550233e+001, 5.927763e+005
9.554126e+001, 5.913205e+005
9.558018e+001, 5.912280e+005
9.561909e+001, 5.904206e+005
9.565802e+001, 5.904713e+005
9.569694e+001, 5.896384e+005
9.573586e+001, 5.885175e+005
9.577478e+001, 5.889071e+005
9.581371e+001, 5.886181e+005
9.585262e+001, 5.865942e+005
9.589154e+001, 5.862475e+005
9.593047e+001, 5.870999e+005
9.596938e+001, 5.867111e+005
9.600830e+001, 5.839281e+005
9.604723e+001, 5.823659e+005
9.608614e+001, 5.817102e+005
9.612506e+001, 5.819934e+005
9.616399e+001, 5.826103e+005
9.620291e+001, 5.802759e+005
9.624183e+001, 5.792571e+005
9.628075e+001, 5.788931e+005
9.631967e+001, 5.781665e+005
9.635859e+001, 5.766488e+005
9.639751e+001, 5.767813e+005
9.643643e+001, 5.774033e+005
9.647535e+001, 5.770138e+005
9.651427e+001, 5.764593e+005
9.655319e+001, 5.760501e+005
9.659212e+001, 5.760171e+005
9.663103e+001, 5.763553e+005
9.666995e+001, 5.746046e+005
9.670888e+001, 5.739936e+005
9.674780e+001, 5.730063e+005
9.678671e+001, 5.715924e+005
9.682564e+001, 5.717634e+005
9.686456e+001, 5.713694e+005
9.690347e+001, 5.704988e+005
9.694240e+001, 5.691718e+005
9.698132e+001, 5.683545e+005
9.702024e+001, 5.681817e+005
9.705916e+001, 5.671741e+005
9.709808e+001, 5.666666e+005
9.713700e+001, 5.653047e+005
9.717592e+001, 5.642084e+005
9.721484e+001, 5.639836e+005
9.725376e+001, 5.633294e+005
9.729268e+001, 5.621758e+005
9.733160e+001, 5.628828e+005
9.737053e+001, 5.625264e+005
9.740945e+001, 5.616602e+005
9.744836e+001, 5.604777e+005
9.748729e+001, 5.604445e+005
9.752621e+001, 5.594271e+005
9.756512e+001, 5.596992e+005
9.760405e+001, 5.605524e+005
9.764297e+001, 5.580243e+005
9.768188e+001, 5.566128e+005
9.772081e+001, 5.561398e+005
9.775974e+001, 5.561556e+005
9.779865e+001, 5.562874e+005
9.783757e+001, 5.546272e+005
9.787650e+001, 5.539324e+005
9.791541e+001, 5.533138e+005
9.795433e+001, 5.534145e+005
9.799326e+001, 5.520993e+005
9.803218e+001, 5.516678e+005
9.807109e+001, 5.504783e+005
9.811002e+001, 5.518189e+005
9.814894e+001, 5.514208e+005
9.818786e+001, 5.502231e+005
9.822678e+001, 5.496399e+005
9.826570e+001, 5.500080e+005
9.830462e+001, 5.490009e+005
9.834354e+001, 5.473724e+005
9.838246e+001, 5.455156e+005
9.842139e+001, 5.464056e+005
9.846030e+001, 5.468503e+005
9.849922e+001, 5.461293e+005
9.853815e+001, 5.455654e+005
9.857706e+001, 5.436926e+005
9.861598e+001, 5.445796e+005
9.865491e+001, 5.443455e+005
9.869382e+001, 5.443732e+005
9.873274e+001, 5.449236e+005
9.877167e+001, 5.437074e+005
9.881059e+001, 5.431478e+005
9.884950e+001, 5.424855e+005
9.888843e+001, 5.416491e+005
9.892735e+001, 5.413376e+005
9.896627e+001, 5.382083e+005
9.900519e+001, 5.365879e+005
9.904411e+001, 5.360159e+005
9.908303e+001, 5.357606e+005
9.912195e+001, 5.347523e+005
9.916087e+001, 5.337937e+005
9.919980e+001, 5.342322e+005
9.923871e+001, 5.352164e+005
9.927763e+001, 5.353539e+005
9.931656e+001, 5.341575e+005
9.935548e+001, 5.324020e+005
9.939439e+001, 5.320748e+005
9.943332e+001, 5.325498e+005
9.947224e+001, 5.325407e+005
9.951115e+001, 5.310148e+005
9.955008e+001, 5.296295e+005
9.958900e+001, 5.298418e+005
9.962791e+001, 5.299378e+005
9.966684e+001, 5.294745e+005
9.970576e+001, 5.289846e+005
9.974468e+001, 5.286291e+005
9.978360e+001, 5.286741e+005
9.982253e+001, 5.272989e+005
9.986144e+001, 5.271392e+005
9.990036e+001, 5.263079e+005
9.993929e+001, 5.262111e+005
9.997821e+001, 5.255554e+005
1.000171e+002, 5.248944e+005
1.000560e+002, 5.238677e+005
1.000950e+002, 5.223465e+005
1.001339e+002, 5.219119e+005
1.001728e+002, 5.206963e+005
1.002117e+002, 5.202592e+005
1.002506e+002, 5.203038e+005
1.002896e+002, 5.184413e+005
1.003285e+002, 5.184445e+005
1.003674e+002, 5.180007e+005
1.004063e+002, 5.169396e+005
1.004453e+002, 5.163365e+005
1.004842e+002, 5.173702e+005
1.005231e+002, 5.160185e+005
1.005620e+002, 5.133586e+005
1.006009e+002, 5.145455e+005
1.006399e+002, 5.135563e+005
1.006788e+002, 5.132862e+005
1.007177e+002, 5.141670e+005
1.007566e+002, 5.133368e+005
1.007955e+002, 5.121530e+005
1.008345e+002, 5.126063e+005
1.008734e+002, 5.119929e+005
1.009123e+002, 5.106472e+005
1.009512e+002, 5.099431e+005
1.009901e+002, 5.091719e+005
1.010291e+002, 5.087304e+005
1.010680e+002, 5.075141e+005
1.011069e+002, 5.082082e+005
1.011458e+002, 5.065913e+005
1.011847e+002, 5.066751e+005
1.012237e+002, 5.059600e+005
1.012626e+002, 5.063012e+005
1.013015e+002, 5.058627e+005
1.013404e+002, 5.052321e+005
1.013793e+002, 5.043730e+005
1.014183e+002, 5.045893e+005
1.014572e+002, 5.042518e+005
1.014961e+002, 5.027972e+005
1.015350e+002, 5.027093e+005
1.015740e+002, 5.023297e+005
1.016129e+002, 5.018176e+005
1.016518e+002, 5.007065e+005
1.016907e+002, 4.998263e+005
1.017296e+002, 4.996229e+005
1.017686e+002, 4.987132e+005
1.018075e+002, 4.974854e+005
1.018464e+002, 4.972750e+005
1.018853e+002, 4.972698e+005
1.019242e+002, 4.961331e+005
1.019632e+002, 4.966684e+005
1.020021e+002, 4.968435e+005
1.020410e+002, 4.959226e+005
1.020799e+002, 4.960980e+005
1.021188e+002, 4.961182e+005
1.021578e+002, 4.946552e+005
1.021967e+002, 4.938738e+005
1.022356e+002, 4.927515e+005
1.022745e+002, 4.925017e+005
1.023134e+002, 4.922240e+005
1.023524e+002, 4.919118e+005
1.023913e+002, 4.919263e+005
1.024302e+002, 4.909800e+005
1.024691e+002, 4.906338e+005
1.025080e+002, 4.900645e+005
1.025470e+002, 4.900422e+005
1.025859e+002, 4.907073e+005
1.026248e+002, 4.894840e+005
1.026637e+002, 4.873327e+005
1.027027e+002, 4.882271e+005
1.027416e+002, 4.876878e+005
1.027805e+002, 4.869536e+005
1.028194e+002, 4.868349e+005
1.028583e+002, 4.876672e+005
1.028972e+002, 4.867870e+005
1.029362e+002, 4.856664e+005
1.029751e+002, 4.854803e+005
1.030140e+002, 4.845672e+005
1.030529e+002, 4.845005e+005
1.030919e+002, 4.838086e+005
1.031308e+002, 4.831413e+005
1.031697e+002, 4.823311e+005
1.032086e+002, 4.815213e+005
1.032475e+002, 4.825512e+005
1.032865e+002, 4.817998e+005
1.033254e+002, 4.820179e+005
1.033643e+002, 4.807833e+005
1.034032e+002, 4.792088e+005
1.034421e+002, 4.779213e+005
1.034811e+002, 4.785077e+005
1.035200e+002, 4.781761e+005
1.035589e+002, 4.773953e+005
1.035978e+002, 4.770917e+005
1.036367e+002, 4.761156e+005
1.036757e+002, 4.761248e+005
1.037146e+002, 4.755760e+005
1.037535e+002, 4.746614e+005
1.037924e+002, 4.743827e+005
1.038313e+002, 4.742967e+005
1.038703e+002, 4.738189e+005
1.039092e+002, 4.736659e+005
1.039481e+002, 4.727482e+005
1.039870e+002, 4.733697e+005
1.040259e+002, 4.739840e+005
1.040649e+002, 4.733506e+005
1.041038e+002, 4.724021e+005
1.041427e+002, 4.722158e+005
1.041816e+002, 4.698124e+005
1.042206e+002, 4.697528e+005
1.042595e+002, 4.697500e+005
1.042984e+002, 4.693582e+005
1.043373e+002, 4.698007e+005
1.043762e+002, 4.697773e+005
1.044152e+002, 4.697308e+005
1.044541e+002, 4.674868e+005
1.044930e+002, 4.670254e+005
1.045319e+002, 4.684298e+005
1.045708e+002, 4.688319e+005
1.046098e+002, 4.687444e+005
1.046487e+002, 4.685770e+005
1.046876e+002, 4.685593e+005
1.047265e+002, 4.674466e+005
1.047654e+002, 4.653276e+005
1.048044e+002, 4.653493e+005
1.048433e+002, 4.652141e+005
1.048822e+002, 4.654257e+005
1.049211e+002, 4.655148e+005
1.049600e+002, 4.639773e+005
1.049990e+002, 4.642985e+005
1.050379e+002, 4.654655e+005
1.050768e+002, 4.648157e+005
1.051157e+002, 4.642826e+005
1.051546e+002, 4.646889e+005
1.051936e+002, 4.641912e+005
1.052325e+002, 4.634077e+005
1.052714e+002, 4.635528e+005
1.053103e+002, 4.631970e+005
1.053493e+002, 4.626985e+005
1.053882e+002, 4.626580e+005
1.054271e+002, 4.623430e+005
1.054660e+002, 4.624407e+005
1.055049e+002, 4.614401e+005
1.055439e+002, 4.602301e+005
1.055828e+002, 4.600421e+005
1.056217e+002, 4.601733e+005
1.056606e+002, 4.599228e+005
1.056995e+002, 4.595811e+005
1.057385e+002, 4.599425e+005
1.057774e+002, 4.597855e+005
1.058163e+002, 4.598887e+005
1.058552e+002, 4.581056e+005
1.058941e+002, 4.583860e+005
1.059331e+002, 4.575453e+005
1.059720e+002, 4.578096e+005
1.060109e+002, 4.573831e+005
1.060498e+002, 4.567896e+005
1.060887e+002, 4.550626e+005
1.061277e+002, 4.540288e+005
1.061666e+002, 4.543032e+005
1.062055e+002, 4.541557e+005
1.062444e+002, 4.532045e+005
1.062833e+002, 4.528502e+005
1.063223e+002, 4.520363e+005
1.063612e+002, 4.523049e+005
1.064001e+002, 4.526994e+005
1.064390e+002, 4.524366e+005
1.064779e+002, 4.523593e+005
1.065169e+002, 4.519033e+005
1.065558e+002, 4.516693e+005
1.065947e+002, 4.518322e+005
1.066336e+002, 4.516070e+005
1.066725e+002, 4.507847e+005
1.067115e+002, 4.504616e+005
1.067504e+002, 4.504350e+005
1.067893e+002, 4.502058e+005
1.068282e+002, 4.504500e+005
1.068671e+002, 4.507263e+005
1.069061e+002, 4.506871e+005
1.069450e+002, 4.503347e+005
1.069839e+002, 4.497662e+005
1.070228e+002, 4.487516e+005
1.070618e+002, 4.485312e+005
1.071007e+002, 4.486697e+005
1.071396e+002, 4.492128e+005
1.071785e+002, 4.490780e+005
1.072174e+002, 4.495375e+005
1.072564e+002, 4.480291e+005
1.072953e+002, 4.475157e+005
1.073342e+002, 4.476763e+005
1.073731e+002, 4.473674e+005
1.074120e+002, 4.489021e+005
1.074510e+002, 4.482343e+005
1.074899e+002, 4.480600e+005
1.075288e+002, 4.483149e+005
1.075677e+002, 4.487438e+005
1.076066e+002, 4.493334e+005
1.076456e+002, 4.486998e+005
1.076845e+002, 4.479992e+005
1.077234e+002, 4.472888e+005
1.077623e+002, 4.466469e+005
1.078012e+002, 4.455268e+005
1.078402e+002, 4.456998e+005
1.078791e+002, 4.455837e+005
1.079180e+002, 4.453745e+005
1.079569e+002, 4.458336e+005
1.079958e+002, 4.453080e+005
1.080348e+002, 4.433492e+005
1.080737e+002, 4.438618e+005
1.081126e+002, 4.448913e+005
1.081515e+002, 4.449528e+005
1.081905e+002, 4.446710e+005
1.082294e+002, 4.435452e+005
1.082683e+002, 4.425924e+005
1.083072e+002, 4.418089e+005
1.083461e+002, 4.400094e+005
1.083851e+002, 4.410543e+005
1.084240e+002, 4.397969e+005
1.084629e+002, 4.381905e+005
1.085018e+002, 4.395535e+005
1.085407e+002, 4.395849e+005
1.085797e+002, 4.384340e+005
1.086186e+002, 4.393360e+005
1.086575e+002, 4.387347e+005
1.086964e+002, 4.384511e+005
1.087353e+002, 4.370617e+005
1.087743e+002, 4.355336e+005
1.088132e+002, 4.365488e+005
1.088521e+002, 4.357596e+005
1.088910e+002, 4.346979e+005
1.089299e+002, 4.335073e+005
1.089689e+002, 4.323710e+005
1.090078e+002, 4.324036e+005
1.090467e+002, 4.319922e+005
1.090856e+002, 4.315297e+005
1.091245e+002, 4.306480e+005
1.091635e+002, 4.309927e+005
1.092024e+002, 4.307274e+005
1.092413e+002, 4.295967e+005
1.092802e+002, 4.295697e+005
1.093192e+002, 4.303740e+005
1.093581e+002, 4.300697e+005
1.093970e+002, 4.282279e+005
1.094359e+002, 4.276712e+005
1.094748e+002, 4.270202e+005
1.095138e+002, 4.266571e+005
1.095527e+002, 4.258907e+005
1.095916e+002, 4.268514e+005
1.096305e+002, 4.250860e+005
1.096694e+002, 4.244273e+005
1.097084e+002, 4.243457e+005
1.097473e+002, 4.238408e+005
1.097862e+002, 4.245003e+005
1.098251e+002, 4.245981e+005
1.098640e+002, 4.240904e+005
1.099030e+002, 4.232756e+005
1.099419e+002, 4.231141e+005
1.099808e+002, 4.221834e+005
1.100197e+002, 4.224620e+005
1.100586e+002, 4.214863e+005
1.100976e+002, 4.213865e+005
1.101365e+002, 4.207741e+005
1.101754e+002, 4.209146e+005
1.102143e+002, 4.215637e+005
1.102532e+002, 4.214503e+005
1.102922e+002, 4.195222e+005
1.103311e+002, 4.182768e+005
1.103700e+002, 4.178803e+005
1.104089e+002, 4.178660e+005
1.104478e+002, 4.166772e+005
1.104868e+002, 4.164475e+005
1.105257e+002, 4.151021e+005
1.105646e+002, 4.151284e+005
1.106035e+002, 4.152957e+005
1.106424e+002, 4.152389e+005
1.106814e+002, 4.155677e+005
1.107203e+002, 4.161983e+005
1.107592e+002, 4.160525e+005
1.107981e+002, 4.162642e+005
1.108371e+002, 4.156577e+005
1.108760e+002, 4.148746e+005
1.109149e+002, 4.149163e+005
1.109538e+002, 4.146608e+005
1.109927e+002, 4.144641e+005
1.110317e+002, 4.141359e+005
1.110706e+002, 4.131764e+005
1.111095e+002, 4.128637e+005
1.111484e+002, 4.129361e+005
1.111873e+002, 4.126478e+005
1.112263e+002, 4.120668e+005
1.112652e+002, 4.114346e+005
1.113041e+002, 4.110322e+005
1.113430e+002, 4.110548e+005
1.113819e+002, 4.104166e+005
1.114209e+002, 4.080995e+005
1.114598e+002, 4.074727e+005
1.114987e+002, 4.072028e+005
1.115376e+002, 4.081603e+005
1.115765e+002, 4.086352e+005
1.116155e+002, 4.082152e+005
1.116544e+002, 4.082492e+005
1.116933e+002, 4.075610e+005
1.117322e+002, 4.075256e+005
1.117711e+002, 4.070482e+005
1.118101e+002, 4.053895e+005
1.118490e+002, 4.045127e+005
1.118879e+002, 4.050271e+005
1.119268e+002, 4.055193e+005
1.119658e+002, 4.045153e+005
1.120047e+002, 4.035946e+005
1.120436e+002, 4.036858e+005
1.120825e+002, 4.035549e+005
1.121214e+002, 4.048617e+005
1.121604e+002, 4.048546e+005
1.121993e+002, 4.030095e+005
1.122382e+002, 4.030344e+005
1.122771e+002, 4.031412e+005
1.123160e+002, 4.025354e+005
1.123550e+002, 4.017779e+005
1.123939e+002, 4.016971e+005
1.124328e+002, 4.017593e+005
1.124717e+002, 4.006493e+005
1.125106e+002, 4.002126e+005
1.125496e+002, 4.001350e+005
1.125885e+002, 3.994872e+005
1.126274e+002, 4.000563e+005
1.126663e+002, 4.014143e+005
1.127052e+002, 4.014246e+005
1.127442e+002, 4.003564e+005
1.127831e+002, 3.991097e+005
1.128220e+002, 3.994708e+005
1.128609e+002, 3.988539e+005
1.128998e+002, 3.984818e+005
1.129388e+002, 3.982744e+005
1.129777e+002, 3.981390e+005
1.130166e+002, 3.983368e+005
1.130555e+002, 3.980271e+005
1.130945e+002, 3.973603e+005
1.131334e+002, 3.975284e+005
1.131723e+002, 3.983043e+005
1.132112e+002, 3.981809e+005
1.132501e+002, 3.968538e+005
1.132891e+002, 3.966893e+005
1.133280e+002, 3.953574e+005
1.133669e+002, 3.946267e+005
1.134058e+002, 3.936425e+005
1.134447e+002, 3.946158e+005
1.134837e+002, 3.942064e+005
1.135226e+002, 3.933479e+005
1.135615e+002, 3.947311e+005
1.136004e+002, 3.954633e+005
1.136393e+002, 3.957356e+005
1.136783e+002, 3.940022e+005
1.137172e+002, 3.929779e+005
1.137561e+002, 3.934224e+005
1.137950e+002, 3.937452e+005
1.138339e+002, 3.935316e+005
1.138729e+002, 3.922187e+005
1.139118e+002, 3.919582e+005
1.139507e+002, 3.914555e+005
1.139896e+002, 3.926087e+005
1.140285e+002, 3.922057e+005
1.140675e+002, 3.914632e+005
1.141064e+002, 3.909194e+005
1.141453e+002, 3.896334e+005
1.141842e+002, 3.893622e+005
1.142231e+002, 3.888074e+005
1.142621e+002, 3.896692e+005
1.143010e+002, 3.896164e+005
1.143399e+002, 3.891542e+005
1.143788e+002, 3.882712e+005
1.144177e+002, 3.889372e+005
1.144567e+002, 3.891442e+005
1.144956e+002, 3.886162e+005
1.145345e+002, 3.874288e+005
1.145734e+002, 3.868274e+005
1.146124e+002, 3.873390e+005
1.146513e+002, 3.874068e+005
1.146902e+002, 3.856198e+005
1.147291e+002, 3.852236e+005
1.147680e+002, 3.843824e+005
1.148070e+002, 3.849203e+005
1.148459e+002, 3.838919e+005
1.148848e+002, 3.834802e+005
1.149237e+002, 3.831673e+005
1.149626e+002, 3.842986e+005
1.150016e+002, 3.850714e+005
1.150405e+002, 3.840930e+005
1.150794e+002, 3.828340e+005
1.151183e+002, 3.819329e+005
1.151572e+002, 3.822609e+005
1.151962e+002, 3.820106e+005
1.152351e+002, 3.813459e+005
1.152740e+002, 3.811271e+005
1.153129e+002, 3.808171e+005
1.153518e+002, 3.804755e+005
1.153908e+002, 3.797095e+005
1.154297e+002, 3.792242e+005
1.154686e+002, 3.791767e+005
1.155075e+002, 3.795463e+005
1.155464e+002, 3.796026e+005
1.155854e+002, 3.780843e+005
1.156243e+002, 3.777494e+005
1.156632e+002, 3.785953e+005
1.157021e+002, 3.776985e+005
1.157411e+002, 3.775560e+005
1.157800e+002, 3.784047e+005
1.158189e+002, 3.776167e+005
1.158578e+002, 3.768199e+005
1.158967e+002, 3.762187e+005
1.159357e+002, 3.757428e+005
1.159746e+002, 3.751260e+005
1.160135e+002, 3.749037e+005
1.160524e+002, 3.737725e+005
1.160913e+002, 3.739850e+005
1.161303e+002, 3.745209e+005
1.161692e+002, 3.735271e+005
1.162081e+002, 3.722173e+005
1.162470e+002, 3.723304e+005
1.162859e+002, 3.722424e+005
1.163249e+002, 3.728357e+005
1.163638e+002, 3.739138e+005
1.164027e+002, 3.738679e+005
1.164416e+002, 3.726468e+005
1.164805e+002, 3.721446e+005
1.165195e+002, 3.701515e+005
1.165584e+002, 3.706227e+005
1.165973e+002, 3.710404e+005
1.166362e+002, 3.703288e+005
1.166751e+002, 3.689687e+005
1.167141e+002, 3.691573e+005
1.167530e+002, 3.699824e+005
1.167919e+002, 3.691175e+005
1.168308e+002, 3.679962e+005
1.168698e+002, 3.677465e+005
1.169087e+002, 3.682223e+005
1.169476e+002, 3.679626e+005
1.169865e+002, 3.673965e+005
1.170254e+002, 3.662629e+005
1.170644e+002, 3.665509e+005
1.171033e+002, 3.661540e+005
1.171422e+002, 3.663002e+005
1.171811e+002, 3.665673e+005
1.172200e+002, 3.656258e+005
1.172590e+002, 3.651825e+005
1.172979e+002, 3.654958e+005
1.173368e+002, 3.647821e+005
1.173757e+002, 3.647851e+005
1.174146e+002, 3.640312e+005
1.174536e+002, 3.636480e+005
1.174925e+002, 3.648501e+005
1.175314e+002, 3.636733e+005
1.175703e+002, 3.628670e+005
1.176092e+002, 3.627568e+005
1.176482e+002, 3.621691e+005
1.176871e+002, 3.615004e+005
1.177260e+002, 3.611029e+005
1.177649e+002, 3.610424e+005
1.178038e+002, 3.614209e+005
1.178428e+002, 3.618879e+005
1.178817e+002, 3.611108e+005
1.179206e+002, 3.598980e+005
1.179595e+002, 3.606707e+005
1.179984e+002, 3.610188e+005
1.180374e+002, 3.599637e+005
1.180763e+002, 3.593096e+005
1.181152e+002, 3.594539e+005
1.181541e+002, 3.594753e+005
1.181930e+002, 3.580450e+005
1.182320e+002, 3.578479e+005
1.182709e+002, 3.593312e+005
1.183098e+002, 3.600240e+005
1.183487e+002, 3.590173e+005
1.183876e+002, 3.568480e+005
1.184266e+002, 3.574855e+005
1.184655e+002, 3.584132e+005
1.185044e+002, 3.569601e+005
1.185433e+002, 3.545104e+005
1.185823e+002, 3.544634e+005
1.186212e+002, 3.544233e+005
1.186601e+002, 3.544233e+005
1.186990e+002, 3.544233e+005
1.187379e+002, 3.544233e+005
1.187769e+002, 3.544233e+005
1.188158e+002, 3.544233e+005
#ENDOFDATA   : End Of Data and File