#FORMAT	     : EMSA/MAS Spectral Data File
#VERSION     : 1.0
#TITLE       : SM100 230eV 60x0,5s
#DATE        : 
#TIME        : 
#OWNER       : Michael Entrup
#NPOINTS     : 2048
#NCOLUMNS    : 1
#XUNITS      : eV
#YUNITS      : e-
#DATATYPE    : XY
#XPERCHAN    : 1.321586e-001
#OFFSET      : 9.466960e+001
#SIGNALTYPE  : ELS
#BEAMKV      : 200000.000000
#MAGCAM      : 50000.000000
#EMISSION    : 0.000000
#PROBECUR    : 0.000000
#BEAMDIAM    : 0.000000
#SPECTRUM    : Spectral Data Starts Here
9.466960e+001, 4.974382e+004
9.480176e+001, 4.974382e+004
9.493392e+001, 4.974382e+004
9.506608e+001, 4.974382e+004
9.519823e+001, 4.974382e+004
9.533039e+001, 4.974382e+004
9.546255e+001, 5.023955e+004
9.559471e+001, 4.952006e+004
9.572687e+001, 4.942465e+004
9.585903e+001, 4.897347e+004
9.599119e+001, 4.850040e+004
9.612334e+001, 4.774252e+004
9.625551e+001, 4.846093e+004
9.638766e+001, 4.779183e+004
9.651982e+001, 4.742764e+004
9.665198e+001, 4.691675e+004
9.678414e+001, 4.703209e+004
9.691630e+001, 4.650324e+004
9.704845e+001, 4.634214e+004
9.718062e+001, 4.571231e+004
9.731277e+001, 4.619330e+004
9.744493e+001, 4.581362e+004
9.757709e+001, 4.567202e+004
9.770925e+001, 4.503825e+004
9.784141e+001, 4.588005e+004
9.797356e+001, 4.513740e+004
9.810573e+001, 4.474646e+004
9.823788e+001, 4.444792e+004
9.837004e+001, 4.399729e+004
9.850220e+001, 4.398418e+004
9.863436e+001, 4.344461e+004
9.876652e+001, 4.355630e+004
9.889867e+001, 4.340771e+004
9.903084e+001, 4.339019e+004
9.916299e+001, 4.285398e+004
9.929515e+001, 4.189782e+004
9.942731e+001, 4.204647e+004
9.955947e+001, 4.212599e+004
9.969163e+001, 4.253914e+004
9.982378e+001, 4.191684e+004
9.995595e+001, 4.130928e+004
1.000881e+002, 4.115789e+004
1.002203e+002, 4.107462e+004
1.003524e+002, 4.134472e+004
1.004846e+002, 4.099122e+004
1.006167e+002, 4.036661e+004
1.007489e+002, 4.018061e+004
1.008811e+002, 4.012118e+004
1.010132e+002, 3.971904e+004
1.011454e+002, 3.959810e+004
1.012775e+002, 3.913635e+004
1.014097e+002, 3.919639e+004
1.015418e+002, 3.898263e+004
1.016740e+002, 3.878371e+004
1.018062e+002, 3.901859e+004
1.019383e+002, 3.800671e+004
1.020705e+002, 3.802828e+004
1.022026e+002, 3.845391e+004
1.023348e+002, 3.807731e+004
1.024670e+002, 3.759149e+004
1.025991e+002, 3.768419e+004
1.027313e+002, 3.769341e+004
1.028634e+002, 3.767332e+004
1.029956e+002, 3.701505e+004
1.031278e+002, 3.697937e+004
1.032599e+002, 3.705411e+004
1.033921e+002, 3.652701e+004
1.035242e+002, 3.614133e+004
1.036564e+002, 3.640379e+004
1.037885e+002, 3.607847e+004
1.039207e+002, 3.657575e+004
1.040529e+002, 3.564682e+004
1.041850e+002, 3.554277e+004
1.043172e+002, 3.509904e+004
1.044493e+002, 3.484129e+004
1.045815e+002, 3.507428e+004
1.047137e+002, 3.480132e+004
1.048458e+002, 3.483726e+004
1.049780e+002, 3.487427e+004
1.051101e+002, 3.510197e+004
1.052423e+002, 3.446452e+004
1.053745e+002, 3.406182e+004
1.055066e+002, 3.423124e+004
1.056388e+002, 3.376913e+004
1.057709e+002, 3.391110e+004
1.059031e+002, 3.401473e+004
1.060352e+002, 3.397932e+004
1.061674e+002, 3.376384e+004
1.062996e+002, 3.332114e+004
1.064317e+002, 3.315571e+004
1.065639e+002, 3.299332e+004
1.066960e+002, 3.311208e+004
1.068282e+002, 3.309279e+004
1.069604e+002, 3.215528e+004
1.070925e+002, 3.249638e+004
1.072247e+002, 3.257014e+004
1.073568e+002, 3.246079e+004
1.074890e+002, 3.200388e+004
1.076211e+002, 3.197057e+004
1.077533e+002, 3.204473e+004
1.078855e+002, 3.166117e+004
1.080176e+002, 3.146873e+004
1.081498e+002, 3.157816e+004
1.082819e+002, 3.254908e+004
1.084141e+002, 3.198312e+004
1.085462e+002, 3.124448e+004
1.086784e+002, 3.132936e+004
1.088106e+002, 3.097984e+004
1.089427e+002, 3.077989e+004
1.090749e+002, 3.027336e+004
1.092070e+002, 3.021430e+004
1.093392e+002, 3.037448e+004
1.094714e+002, 3.034128e+004
1.096035e+002, 2.966493e+004
1.097357e+002, 2.964410e+004
1.098678e+002, 2.988579e+004
1.100000e+002, 2.914660e+004
1.101322e+002, 2.916940e+004
1.102643e+002, 2.933832e+004
1.103965e+002, 2.907663e+004
1.105286e+002, 2.881301e+004
1.106608e+002, 2.910818e+004
1.107930e+002, 2.897006e+004
1.109251e+002, 2.851520e+004
1.110573e+002, 2.823230e+004
1.111894e+002, 2.805863e+004
1.113216e+002, 2.836518e+004
1.114537e+002, 2.799197e+004
1.115859e+002, 2.786220e+004
1.117181e+002, 2.827921e+004
1.118502e+002, 2.757021e+004
1.119824e+002, 2.690068e+004
1.121145e+002, 2.751780e+004
1.122467e+002, 2.713436e+004
1.123789e+002, 2.727968e+004
1.125110e+002, 2.728123e+004
1.126432e+002, 2.714261e+004
1.127753e+002, 2.663887e+004
1.129075e+002, 2.695024e+004
1.130396e+002, 2.669434e+004
1.131718e+002, 2.652998e+004
1.133040e+002, 2.696885e+004
1.134361e+002, 2.655143e+004
1.135683e+002, 2.675890e+004
1.137004e+002, 2.629013e+004
1.138326e+002, 2.610291e+004
1.139648e+002, 2.571475e+004
1.140969e+002, 2.557179e+004
1.142291e+002, 2.553042e+004
1.143612e+002, 2.554823e+004
1.144934e+002, 2.575514e+004
1.146255e+002, 2.557430e+004
1.147577e+002, 2.549515e+004
1.148899e+002, 2.515261e+004
1.150220e+002, 2.504557e+004
1.151542e+002, 2.544868e+004
1.152863e+002, 2.499406e+004
1.154185e+002, 2.525046e+004
1.155507e+002, 2.475795e+004
1.156828e+002, 2.501974e+004
1.158150e+002, 2.503425e+004
1.159471e+002, 2.487336e+004
1.160793e+002, 2.431128e+004
1.162115e+002, 2.384093e+004
1.163436e+002, 2.369452e+004
1.164758e+002, 2.398299e+004
1.166079e+002, 2.418404e+004
1.167401e+002, 2.374441e+004
1.168722e+002, 2.358342e+004
1.170044e+002, 2.380267e+004
1.171366e+002, 2.361813e+004
1.172687e+002, 2.377199e+004
1.174009e+002, 2.319726e+004
1.175330e+002, 2.311350e+004
1.176652e+002, 2.308931e+004
1.177974e+002, 2.293934e+004
1.179295e+002, 2.281182e+004
1.180617e+002, 2.248740e+004
1.181938e+002, 2.305917e+004
1.183260e+002, 2.286679e+004
1.184581e+002, 2.285894e+004
1.185903e+002, 2.215011e+004
1.187225e+002, 2.248962e+004
1.188546e+002, 2.215387e+004
1.189868e+002, 2.235409e+004
1.191189e+002, 2.159141e+004
1.192511e+002, 2.170216e+004
1.193833e+002, 2.222901e+004
1.195154e+002, 2.206774e+004
1.196476e+002, 2.173241e+004
1.197797e+002, 2.185296e+004
1.199119e+002, 2.163270e+004
1.200441e+002, 2.140455e+004
1.201762e+002, 2.133804e+004
1.203084e+002, 2.117542e+004
1.204405e+002, 2.136459e+004
1.205727e+002, 2.109633e+004
1.207048e+002, 2.077480e+004
1.208370e+002, 2.071623e+004
1.209692e+002, 2.125685e+004
1.211013e+002, 2.020580e+004
1.212335e+002, 2.080472e+004
1.213656e+002, 2.053146e+004
1.214978e+002, 2.074921e+004
1.216300e+002, 2.125671e+004
1.217621e+002, 2.062541e+004
1.218943e+002, 1.969557e+004
1.220264e+002, 2.032240e+004
1.221586e+002, 2.038340e+004
1.222907e+002, 2.024121e+004
1.224229e+002, 1.986549e+004
1.225551e+002, 2.034639e+004
1.226872e+002, 2.021763e+004
1.228194e+002, 1.950274e+004
1.229515e+002, 1.947261e+004
1.230837e+002, 1.984943e+004
1.232159e+002, 1.906469e+004
1.233480e+002, 1.953257e+004
1.234802e+002, 1.909956e+004
1.236123e+002, 1.965574e+004
1.237445e+002, 1.882096e+004
1.238766e+002, 1.928347e+004
1.240088e+002, 1.891732e+004
1.241410e+002, 1.967434e+004
1.242731e+002, 1.888213e+004
1.244053e+002, 1.871470e+004
1.245374e+002, 1.896727e+004
1.246696e+002, 1.897691e+004
1.248018e+002, 1.896891e+004
1.249339e+002, 1.889644e+004
1.250661e+002, 1.795607e+004
1.251982e+002, 1.901562e+004
1.253304e+002, 1.866092e+004
1.254626e+002, 1.846562e+004
1.255947e+002, 1.839627e+004
1.257269e+002, 1.880857e+004
1.258590e+002, 1.772226e+004
1.259912e+002, 1.821448e+004
1.261233e+002, 1.807163e+004
1.262555e+002, 1.836981e+004
1.263877e+002, 1.821751e+004
1.265198e+002, 1.790353e+004
1.266520e+002, 1.756117e+004
1.267841e+002, 1.810537e+004
1.269163e+002, 1.757380e+004
1.270485e+002, 1.785343e+004
1.271806e+002, 1.757214e+004
1.273128e+002, 1.769450e+004
1.274449e+002, 1.738165e+004
1.275771e+002, 1.786763e+004
1.277093e+002, 1.715780e+004
1.278414e+002, 1.669235e+004
1.279736e+002, 1.706678e+004
1.281057e+002, 1.722525e+004
1.282379e+002, 1.702130e+004
1.283700e+002, 1.722432e+004
1.285022e+002, 1.712874e+004
1.286344e+002, 1.728019e+004
1.287665e+002, 1.649076e+004
1.288987e+002, 1.662202e+004
1.290308e+002, 1.658300e+004
1.291630e+002, 1.727271e+004
1.292952e+002, 1.657412e+004
1.294273e+002, 1.659982e+004
1.295595e+002, 1.632899e+004
1.296916e+002, 1.700405e+004
1.298238e+002, 1.628876e+004
1.299559e+002, 1.614047e+004
1.300881e+002, 1.621822e+004
1.302203e+002, 1.625813e+004
1.303524e+002, 1.618111e+004
1.304846e+002, 1.620211e+004
1.306167e+002, 1.623422e+004
1.307489e+002, 1.589168e+004
1.308811e+002, 1.607615e+004
1.310132e+002, 1.626135e+004
1.311454e+002, 1.571258e+004
1.312775e+002, 1.556220e+004
1.314097e+002, 1.562882e+004
1.315418e+002, 1.672900e+004
1.316740e+002, 1.586057e+004
1.318062e+002, 1.532638e+004
1.319383e+002, 1.539506e+004
1.320705e+002, 1.621855e+004
1.322026e+002, 1.559419e+004
1.323348e+002, 1.539132e+004
1.324669e+002, 1.568446e+004
1.325991e+002, 1.554479e+004
1.327313e+002, 1.566941e+004
1.328634e+002, 1.507025e+004
1.329956e+002, 1.562511e+004
1.331277e+002, 1.507460e+004
1.332599e+002, 1.475692e+004
1.333921e+002, 1.481196e+004
1.335242e+002, 1.509235e+004
1.336564e+002, 1.529177e+004
1.337885e+002, 1.467946e+004
1.339207e+002, 1.475597e+004
1.340529e+002, 1.492252e+004
1.341850e+002, 1.482764e+004
1.343172e+002, 1.431881e+004
1.344493e+002, 1.449363e+004
1.345815e+002, 1.438490e+004
1.347137e+002, 1.412367e+004
1.348458e+002, 1.420777e+004
1.349780e+002, 1.388759e+004
1.351101e+002, 1.403398e+004
1.352423e+002, 1.414296e+004
1.353745e+002, 1.422376e+004
1.355066e+002, 1.428194e+004
1.356388e+002, 1.394775e+004
1.357709e+002, 1.367896e+004
1.359031e+002, 1.419995e+004
1.360352e+002, 1.333005e+004
1.361674e+002, 1.362736e+004
1.362996e+002, 1.402164e+004
1.364317e+002, 1.362345e+004
1.365639e+002, 1.334978e+004
1.366960e+002, 1.382992e+004
1.368282e+002, 1.351022e+004
1.369604e+002, 1.348836e+004
1.370925e+002, 1.364804e+004
1.372247e+002, 1.306606e+004
1.373568e+002, 1.329724e+004
1.374890e+002, 1.384414e+004
1.376211e+002, 1.324556e+004
1.377533e+002, 1.317380e+004
1.378855e+002, 1.269165e+004
1.380176e+002, 1.287721e+004
1.381498e+002, 1.323922e+004
1.382819e+002, 1.317121e+004
1.384141e+002, 1.298468e+004
1.385462e+002, 1.280639e+004
1.386784e+002, 1.302348e+004
1.388106e+002, 1.278318e+004
1.389427e+002, 1.304273e+004
1.390749e+002, 1.306533e+004
1.392070e+002, 1.267128e+004
1.393392e+002, 1.313253e+004
1.394714e+002, 1.264072e+004
1.396035e+002, 1.296122e+004
1.397357e+002, 1.265496e+004
1.398678e+002, 1.342859e+004
1.400000e+002, 1.270185e+004
1.401322e+002, 1.229254e+004
1.402643e+002, 1.286042e+004
1.403965e+002, 1.217212e+004
1.405286e+002, 1.212647e+004
1.406608e+002, 1.222445e+004
1.407930e+002, 1.231356e+004
1.409251e+002, 1.230522e+004
1.410573e+002, 1.213324e+004
1.411894e+002, 1.235143e+004
1.413216e+002, 1.198256e+004
1.414537e+002, 1.188289e+004
1.415859e+002, 1.208608e+004
1.417181e+002, 1.203742e+004
1.418502e+002, 1.226505e+004
1.419824e+002, 1.194103e+004
1.421145e+002, 1.160214e+004
1.422467e+002, 1.167299e+004
1.423788e+002, 1.168654e+004
1.425110e+002, 1.148323e+004
1.426432e+002, 1.157671e+004
1.427753e+002, 1.232802e+004
1.429075e+002, 1.162858e+004
1.430396e+002, 1.105517e+004
1.431718e+002, 1.121661e+004
1.433040e+002, 1.162362e+004
1.434361e+002, 1.184445e+004
1.435683e+002, 1.154388e+004
1.437004e+002, 1.066376e+004
1.438326e+002, 1.133256e+004
1.439648e+002, 1.126884e+004
1.440969e+002, 1.071361e+004
1.442291e+002, 1.096533e+004
1.443612e+002, 1.129160e+004
1.444934e+002, 1.121752e+004
1.446255e+002, 1.114574e+004
1.447577e+002, 1.096884e+004
1.448899e+002, 1.144516e+004
1.450220e+002, 1.112065e+004
1.451542e+002, 1.179815e+004
1.452863e+002, 1.018520e+004
1.454185e+002, 1.075613e+004
1.455507e+002, 1.091788e+004
1.456828e+002, 1.081379e+004
1.458150e+002, 1.045781e+004
1.459471e+002, 1.079631e+004
1.460793e+002, 1.116880e+004
1.462115e+002, 1.044265e+004
1.463436e+002, 1.031780e+004
1.464758e+002, 1.089236e+004
1.466079e+002, 1.040636e+004
1.467401e+002, 1.024860e+004
1.468723e+002, 9.849748e+003
1.470044e+002, 1.098757e+004
1.471366e+002, 1.049796e+004
1.472687e+002, 1.039183e+004
1.474009e+002, 1.039897e+004
1.475330e+002, 9.856423e+003
1.476652e+002, 1.002156e+004
1.477974e+002, 1.021956e+004
1.479295e+002, 9.733494e+003
1.480617e+002, 1.049299e+004
1.481938e+002, 1.074349e+004
1.483260e+002, 1.016830e+004
1.484581e+002, 9.687574e+003
1.485903e+002, 1.015067e+004
1.487225e+002, 1.027189e+004
1.488546e+002, 1.003263e+004
1.489868e+002, 9.456463e+003
1.491189e+002, 9.886870e+003
1.492511e+002, 9.467569e+003
1.493833e+002, 9.886255e+003
1.495154e+002, 9.875503e+003
1.496476e+002, 9.720465e+003
1.497797e+002, 9.795639e+003
1.499119e+002, 9.671016e+003
1.500441e+002, 9.513698e+003
1.501762e+002, 9.840921e+003
1.503084e+002, 9.810780e+003
1.504405e+002, 9.467922e+003
1.505727e+002, 9.624275e+003
1.507048e+002, 9.824623e+003
1.508370e+002, 9.527542e+003
1.509692e+002, 9.313215e+003
1.511013e+002, 9.355207e+003
1.512335e+002, 9.426665e+003
1.513656e+002, 9.863270e+003
1.514978e+002, 9.125658e+003
1.516300e+002, 9.509673e+003
1.517621e+002, 9.365838e+003
1.518943e+002, 9.878095e+003
1.520264e+002, 9.655894e+003
1.521586e+002, 9.506228e+003
1.522907e+002, 9.126852e+003
1.524229e+002, 9.077590e+003
1.525551e+002, 9.054140e+003
1.526872e+002, 9.723621e+003
1.528194e+002, 8.898046e+003
1.529515e+002, 9.263932e+003
1.530837e+002, 8.872819e+003
1.532159e+002, 9.244180e+003
1.533480e+002, 9.496887e+003
1.534802e+002, 8.792152e+003
1.536123e+002, 8.930882e+003
1.537445e+002, 9.384210e+003
1.538766e+002, 8.267037e+003
1.540088e+002, 9.513977e+003
1.541410e+002, 8.632889e+003
1.542731e+002, 9.324998e+003
1.544053e+002, 8.412100e+003
1.545374e+002, 9.197913e+003
1.546696e+002, 8.757492e+003
1.548018e+002, 9.384001e+003
1.549339e+002, 8.335665e+003
1.550661e+002, 8.660440e+003
1.551982e+002, 8.066781e+003
1.553304e+002, 8.301329e+003
1.554626e+002, 8.017675e+003
1.555947e+002, 8.561375e+003
1.557269e+002, 8.287346e+003
1.558590e+002, 8.325374e+003
1.559912e+002, 8.219969e+003
1.561234e+002, 8.805770e+003
1.562555e+002, 8.037325e+003
1.563877e+002, 8.674267e+003
1.565198e+002, 8.475712e+003
1.566520e+002, 8.652570e+003
1.567841e+002, 8.476256e+003
1.569163e+002, 8.276449e+003
1.570485e+002, 8.501089e+003
1.571806e+002, 8.389366e+003
1.573128e+002, 9.014949e+003
1.574449e+002, 7.816960e+003
1.575771e+002, 8.520881e+003
1.577093e+002, 8.904751e+003
1.578414e+002, 8.313795e+003
1.579736e+002, 7.654228e+003
1.581057e+002, 9.088266e+003
1.582379e+002, 8.335791e+003
1.583700e+002, 7.589658e+003
1.585022e+002, 7.989983e+003
1.586344e+002, 7.914720e+003
1.587665e+002, 8.409102e+003
1.588987e+002, 7.997440e+003
1.590308e+002, 7.898918e+003
1.591630e+002, 7.916476e+003
1.592952e+002, 7.811415e+003
1.594273e+002, 7.412052e+003
1.595595e+002, 7.804343e+003
1.596916e+002, 7.967779e+003
1.598238e+002, 7.714590e+003
1.599559e+002, 7.517874e+003
1.600881e+002, 7.378586e+003
1.602203e+002, 7.671470e+003
1.603524e+002, 7.134219e+003
1.604846e+002, 7.924115e+003
1.606167e+002, 8.164359e+003
1.607489e+002, 8.214241e+003
1.608811e+002, 7.376026e+003
1.610132e+002, 7.412583e+003
1.611454e+002, 7.384898e+003
1.612775e+002, 7.845324e+003
1.614097e+002, 7.721831e+003
1.615418e+002, 7.502504e+003
1.616740e+002, 7.391700e+003
1.618062e+002, 7.265483e+003
1.619383e+002, 6.908080e+003
1.620705e+002, 7.514797e+003
1.622026e+002, 6.988306e+003
1.623348e+002, 6.818893e+003
1.624669e+002, 7.484949e+003
1.625991e+002, 7.912955e+003
1.627313e+002, 6.988264e+003
1.628634e+002, 6.979474e+003
1.629956e+002, 7.569313e+003
1.631277e+002, 7.056276e+003
1.632599e+002, 7.267871e+003
1.633921e+002, 7.523003e+003
1.635242e+002, 7.352333e+003
1.636564e+002, 7.405401e+003
1.637885e+002, 6.673964e+003
1.639207e+002, 6.974878e+003
1.640529e+002, 7.386289e+003
1.641850e+002, 7.293111e+003
1.643172e+002, 6.506490e+003
1.644493e+002, 6.918749e+003
1.645815e+002, 7.207628e+003
1.647137e+002, 7.027883e+003
1.648458e+002, 6.611827e+003
1.649780e+002, 7.633674e+003
1.651101e+002, 6.451452e+003
1.652423e+002, 7.121263e+003
1.653745e+002, 6.793624e+003
1.655066e+002, 7.109041e+003
1.656388e+002, 7.054309e+003
1.657709e+002, 7.734863e+003
1.659031e+002, 7.098330e+003
1.660352e+002, 6.819124e+003
1.661674e+002, 6.881002e+003
1.662996e+002, 6.641498e+003
1.664317e+002, 6.816193e+003
1.665639e+002, 6.791891e+003
1.666960e+002, 6.618355e+003
1.668282e+002, 6.761677e+003
1.669604e+002, 6.817150e+003
1.670925e+002, 6.577768e+003
1.672247e+002, 6.486999e+003
1.673568e+002, 6.682509e+003
1.674890e+002, 6.704201e+003
1.676212e+002, 6.651961e+003
1.677533e+002, 6.731032e+003
1.678855e+002, 6.266666e+003
1.680176e+002, 6.506288e+003
1.681498e+002, 6.468061e+003
1.682819e+002, 6.526420e+003
1.684141e+002, 6.273537e+003
1.685463e+002, 6.833208e+003
1.686784e+002, 6.192404e+003
1.688106e+002, 6.847783e+003
1.689427e+002, 6.516316e+003
1.690749e+002, 6.567544e+003
1.692070e+002, 6.725020e+003
1.693392e+002, 6.945523e+003
1.694714e+002, 6.873648e+003
1.696035e+002, 6.439858e+003
1.697357e+002, 6.437175e+003
1.698678e+002, 6.173622e+003
1.700000e+002, 7.120531e+003
1.701322e+002, 6.364173e+003
1.702643e+002, 6.799559e+003
1.703965e+002, 6.047017e+003
1.705286e+002, 6.694326e+003
1.706608e+002, 6.297063e+003
1.707930e+002, 6.323191e+003
1.709251e+002, 6.364204e+003
1.710573e+002, 6.220238e+003
1.711894e+002, 6.418021e+003
1.713216e+002, 6.269927e+003
1.714537e+002, 5.759722e+003
1.715859e+002, 6.106370e+003
1.717181e+002, 6.019723e+003
1.718502e+002, 5.919423e+003
1.719824e+002, 6.534607e+003
1.721145e+002, 6.609817e+003
1.722467e+002, 5.984742e+003
1.723788e+002, 6.281288e+003
1.725110e+002, 6.418163e+003
1.726432e+002, 5.649169e+003
1.727753e+002, 5.709057e+003
1.729075e+002, 6.248511e+003
1.730396e+002, 6.078616e+003
1.731718e+002, 6.045577e+003
1.733040e+002, 6.032402e+003
1.734361e+002, 5.547430e+003
1.735683e+002, 6.330194e+003
1.737004e+002, 6.056966e+003
1.738326e+002, 6.108406e+003
1.739648e+002, 5.742842e+003
1.740969e+002, 6.002563e+003
1.742291e+002, 5.692048e+003
1.743612e+002, 5.910222e+003
1.744934e+002, 6.130383e+003
1.746255e+002, 5.276655e+003
1.747577e+002, 5.733532e+003
1.748899e+002, 6.199710e+003
1.750220e+002, 5.416015e+003
1.751542e+002, 5.949741e+003
1.752863e+002, 6.119576e+003
1.754185e+002, 6.019770e+003
1.755507e+002, 5.720753e+003
1.756828e+002, 5.819974e+003
1.758150e+002, 5.670559e+003
1.759471e+002, 6.266683e+003
1.760793e+002, 5.444879e+003
1.762115e+002, 5.314887e+003
1.763436e+002, 6.151476e+003
1.764758e+002, 5.858660e+003
1.766079e+002, 5.690703e+003
1.767401e+002, 6.064394e+003
1.768723e+002, 4.953769e+003
1.770044e+002, 5.740595e+003
1.771366e+002, 5.340536e+003
1.772687e+002, 6.109633e+003
1.774009e+002, 4.925253e+003
1.775330e+002, 5.517595e+003
1.776652e+002, 5.120425e+003
1.777974e+002, 4.544677e+003
1.779295e+002, 4.658363e+003
1.780617e+002, 5.132475e+003
1.781938e+002, 5.188119e+003
1.783260e+002, 4.846745e+003
1.784582e+002, 4.558674e+003
1.785903e+002, 5.299295e+003
1.787225e+002, 5.326622e+003
1.788546e+002, 4.459417e+003
1.789868e+002, 4.706706e+003
1.791189e+002, 5.051847e+003
1.792511e+002, 5.031493e+003
1.793833e+002, 4.672010e+003
1.795154e+002, 5.069012e+003
1.796476e+002, 5.352057e+003
1.797797e+002, 4.656496e+003
1.799119e+002, 4.593646e+003
1.800441e+002, 4.861690e+003
1.801762e+002, 5.345981e+003
1.803084e+002, 4.760672e+003
1.804405e+002, 5.386339e+003
1.805727e+002, 4.876240e+003
1.807048e+002, 4.932202e+003
1.808370e+002, 5.173979e+003
1.809692e+002, 4.572690e+003
1.811013e+002, 5.110322e+003
1.812335e+002, 5.071825e+003
1.813656e+002, 4.501644e+003
1.814978e+002, 5.048370e+003
1.816299e+002, 5.323244e+003
1.817621e+002, 4.764044e+003
1.818943e+002, 4.643315e+003
1.820264e+002, 4.611303e+003
1.821586e+002, 4.040516e+003
1.822907e+002, 4.955563e+003
1.824229e+002, 5.297522e+003
1.825551e+002, 4.363063e+003
1.826872e+002, 4.395870e+003
1.828194e+002, 4.894460e+003
1.829515e+002, 4.703948e+003
1.830837e+002, 4.790001e+003
1.832159e+002, 5.183376e+003
1.833480e+002, 4.369809e+003
1.834802e+002, 4.109414e+003
1.836123e+002, 4.230313e+003
1.837445e+002, 4.873003e+003
1.838766e+002, 4.725811e+003
1.840088e+002, 4.645778e+003
1.841410e+002, 4.594374e+003
1.842731e+002, 4.718434e+003
1.844053e+002, 4.915223e+003
1.845374e+002, 4.416125e+003
1.846696e+002, 5.015470e+003
1.848018e+002, 4.492292e+003
1.849339e+002, 5.052162e+003
1.850661e+002, 4.174143e+003
1.851982e+002, 5.305608e+003
1.853304e+002, 4.505971e+003
1.854626e+002, 5.360781e+003
1.855947e+002, 5.261755e+003
1.857269e+002, 4.921095e+003
1.858590e+002, 4.488278e+003
1.859912e+002, 5.020076e+003
1.861234e+002, 4.555877e+003
1.862555e+002, 5.274729e+003
1.863877e+002, 4.636133e+003
1.865198e+002, 4.502816e+003
1.866520e+002, 4.369432e+003
1.867841e+002, 5.507306e+003
1.869163e+002, 4.651746e+003
1.870485e+002, 4.279007e+003
1.871806e+002, 4.572970e+003
1.873128e+002, 4.269372e+003
1.874449e+002, 4.555356e+003
1.875771e+002, 4.918269e+003
1.877093e+002, 4.283199e+003
1.878414e+002, 4.495629e+003
1.879736e+002, 4.153705e+003
1.881057e+002, 3.993673e+003
1.882379e+002, 4.702698e+003
1.883700e+002, 4.385633e+003
1.885022e+002, 4.048204e+003
1.886344e+002, 3.883357e+003
1.887665e+002, 4.386604e+003
1.888987e+002, 4.453295e+003
1.890308e+002, 4.261127e+003
1.891630e+002, 4.037495e+003
1.892952e+002, 4.273271e+003
1.894273e+002, 4.443429e+003
1.895595e+002, 4.287165e+003
1.896916e+002, 4.334780e+003
1.898238e+002, 3.904133e+003
1.899559e+002, 4.432069e+003
1.900881e+002, 4.429610e+003
1.902203e+002, 4.251926e+003
1.903524e+002, 4.341212e+003
1.904846e+002, 4.442160e+003
1.906167e+002, 4.616442e+003
1.907489e+002, 4.197713e+003
1.908811e+002, 3.577215e+003
1.910132e+002, 4.343938e+003
1.911454e+002, 4.228976e+003
1.912775e+002, 3.649140e+003
1.914097e+002, 4.135955e+003
1.915418e+002, 4.292172e+003
1.916740e+002, 4.971746e+003
1.918062e+002, 3.893670e+003
1.919383e+002, 4.328150e+003
1.920705e+002, 4.172279e+003
1.922026e+002, 4.807258e+003
1.923348e+002, 4.044347e+003
1.924669e+002, 4.059873e+003
1.925991e+002, 3.745941e+003
1.927313e+002, 4.400749e+003
1.928634e+002, 3.994605e+003
1.929956e+002, 3.829693e+003
1.931277e+002, 3.926028e+003
1.932599e+002, 3.841046e+003
1.933921e+002, 3.806984e+003
1.935242e+002, 3.327423e+003
1.936564e+002, 3.768551e+003
1.937885e+002, 4.329089e+003
1.939207e+002, 3.733985e+003
1.940529e+002, 4.059470e+003
1.941850e+002, 3.749619e+003
1.943172e+002, 4.545479e+003
1.944493e+002, 3.834270e+003
1.945815e+002, 3.707307e+003
1.947137e+002, 3.542300e+003
1.948458e+002, 3.885664e+003
1.949780e+002, 3.301126e+003
1.951101e+002, 3.813345e+003
1.952423e+002, 3.979036e+003
1.953745e+002, 3.582421e+003
1.955066e+002, 3.690708e+003
1.956388e+002, 3.619414e+003
1.957709e+002, 4.310066e+003
1.959031e+002, 4.454792e+003
1.960352e+002, 4.187797e+003
1.961674e+002, 4.127812e+003
1.962996e+002, 3.765163e+003
1.964317e+002, 3.311458e+003
1.965639e+002, 3.924356e+003
1.966960e+002, 3.874799e+003
1.968282e+002, 4.060556e+003
1.969604e+002, 3.866513e+003
1.970925e+002, 4.064676e+003
1.972247e+002, 3.949427e+003
1.973568e+002, 3.899354e+003
1.974890e+002, 4.261694e+003
1.976212e+002, 3.311978e+003
1.977533e+002, 3.221095e+003
1.978855e+002, 3.222634e+003
1.980176e+002, 2.844508e+003
1.981498e+002, 3.951817e+003
1.982819e+002, 3.564367e+003
1.984141e+002, 3.105852e+003
1.985463e+002, 3.429292e+003
1.986784e+002, 4.168316e+003
1.988106e+002, 3.760129e+003
1.989427e+002, 3.616930e+003
1.990749e+002, 4.088663e+003
1.992070e+002, 3.255905e+003
1.993392e+002, 3.647027e+003
1.994714e+002, 3.499744e+003
1.996035e+002, 3.154055e+003
1.997357e+002, 3.380458e+003
1.998678e+002, 3.422832e+003
2.000000e+002, 3.892670e+003
2.001322e+002, 3.185743e+003
2.002643e+002, 3.764823e+003
2.003965e+002, 3.547577e+003
2.005286e+002, 4.054112e+003
2.006608e+002, 4.099477e+003
2.007930e+002, 3.468779e+003
2.009251e+002, 3.727495e+003
2.010573e+002, 4.093551e+003
2.011894e+002, 3.561653e+003
2.013216e+002, 3.587676e+003
2.014537e+002, 3.686445e+003
2.015859e+002, 3.555155e+003
2.017181e+002, 3.930563e+003
2.018502e+002, 3.245716e+003
2.019824e+002, 3.764919e+003
2.021145e+002, 3.950959e+003
2.022467e+002, 3.768241e+003
2.023788e+002, 3.506192e+003
2.025110e+002, 3.943875e+003
2.026432e+002, 3.556576e+003
2.027753e+002, 3.110357e+003
2.029075e+002, 4.047591e+003
2.030396e+002, 3.660166e+003
2.031718e+002, 3.084407e+003
2.033040e+002, 3.501024e+003
2.034361e+002, 3.019829e+003
2.035683e+002, 3.598857e+003
2.037004e+002, 3.755546e+003
2.038326e+002, 3.554162e+003
2.039648e+002, 3.377199e+003
2.040969e+002, 3.467767e+003
2.042291e+002, 3.618046e+003
2.043612e+002, 3.354176e+003
2.044934e+002, 3.483067e+003
2.046255e+002, 3.341426e+003
2.047577e+002, 3.278716e+003
2.048899e+002, 3.577726e+003
2.050220e+002, 3.093566e+003
2.051542e+002, 2.931343e+003
2.052863e+002, 3.600696e+003
2.054185e+002, 3.159472e+003
2.055507e+002, 3.559376e+003
2.056828e+002, 3.147422e+003
2.058150e+002, 2.673341e+003
2.059471e+002, 3.029724e+003
2.060793e+002, 3.316486e+003
2.062115e+002, 3.359562e+003
2.063436e+002, 3.116781e+003
2.064758e+002, 3.142103e+003
2.066079e+002, 2.864075e+003
2.067401e+002, 2.887286e+003
2.068723e+002, 3.749321e+003
2.070044e+002, 3.347590e+003
2.071366e+002, 3.061695e+003
2.072687e+002, 3.522926e+003
2.074009e+002, 3.034897e+003
2.075331e+002, 3.703805e+003
2.076652e+002, 3.104175e+003
2.077974e+002, 3.330057e+003
2.079295e+002, 2.833490e+003
2.080617e+002, 3.677812e+003
2.081938e+002, 3.087353e+003
2.083260e+002, 3.213583e+003
2.084582e+002, 3.180612e+003
2.085903e+002, 3.333502e+003
2.087225e+002, 3.033977e+003
2.088546e+002, 3.162016e+003
2.089868e+002, 3.330190e+003
2.091189e+002, 3.205778e+003
2.092511e+002, 3.624074e+003
2.093833e+002, 3.139292e+003
2.095154e+002, 3.010074e+003
2.096476e+002, 3.411852e+003
2.097797e+002, 3.201850e+003
2.099119e+002, 2.914392e+003
2.100441e+002, 3.016741e+003
2.101762e+002, 3.560846e+003
2.103084e+002, 2.823230e+003
2.104405e+002, 3.168162e+003
2.105727e+002, 3.678608e+003
2.107048e+002, 3.102099e+003
2.108370e+002, 3.222523e+003
2.109692e+002, 2.886757e+003
2.111013e+002, 3.234649e+003
2.112335e+002, 3.248692e+003
2.113656e+002, 2.947186e+003
2.114978e+002, 2.724203e+003
2.116300e+002, 3.175809e+003
2.117621e+002, 3.328873e+003
2.118943e+002, 3.374180e+003
2.120264e+002, 3.497369e+003
2.121586e+002, 2.471890e+003
2.122907e+002, 2.882137e+003
2.124229e+002, 3.322693e+003
2.125551e+002, 3.193874e+003
2.126872e+002, 2.540452e+003
2.128194e+002, 2.927402e+003
2.129515e+002, 3.299382e+003
2.130837e+002, 3.434630e+003
2.132159e+002, 3.134907e+003
2.133480e+002, 2.367721e+003
2.134802e+002, 3.179463e+003
2.136123e+002, 3.466837e+003
2.137445e+002, 3.386778e+003
2.138766e+002, 2.083576e+003
2.140088e+002, 2.935190e+003
2.141410e+002, 3.158218e+003
2.142731e+002, 2.521059e+003
2.144053e+002, 2.321321e+003
2.145374e+002, 2.804334e+003
2.146696e+002, 2.790738e+003
2.148018e+002, 3.203500e+003
2.149339e+002, 3.017795e+003
2.150661e+002, 2.682874e+003
2.151982e+002, 3.190552e+003
2.153304e+002, 3.046751e+003
2.154626e+002, 3.311865e+003
2.155947e+002, 3.447195e+003
2.157269e+002, 2.893366e+003
2.158590e+002, 3.447084e+003
2.159912e+002, 3.105766e+003
2.161234e+002, 3.250621e+003
2.162555e+002, 2.558738e+003
2.163877e+002, 3.599716e+003
2.165198e+002, 2.507897e+003
2.166520e+002, 3.030115e+003
2.167841e+002, 3.240203e+003
2.169163e+002, 2.850854e+003
2.170485e+002, 2.585192e+003
2.171806e+002, 3.321201e+003
2.173128e+002, 3.158305e+003
2.174449e+002, 3.314701e+003
2.175771e+002, 3.216112e+003
2.177093e+002, 3.074659e+003
2.178414e+002, 1.569616e+003
2.179736e+002, 3.093149e+003
2.181057e+002, 2.668808e+003
2.182379e+002, 2.934485e+003
2.183700e+002, 2.739634e+003
2.185022e+002, 2.774187e+003
2.186344e+002, 2.669303e+003
2.187665e+002, 3.172236e+003
2.188987e+002, 2.704255e+003
2.190308e+002, 2.990357e+003
2.191630e+002, 2.879662e+003
2.192952e+002, 2.477510e+003
2.194273e+002, 2.207433e+003
2.195595e+002, 3.140976e+003
2.196916e+002, 2.659735e+003
2.198238e+002, 3.186273e+003
2.199559e+002, 2.267607e+003
2.200881e+002, 3.101787e+003
2.202203e+002, 2.346918e+003
2.203524e+002, 2.493185e+003
2.204846e+002, 2.280530e+003
2.206167e+002, 2.345744e+003
2.207489e+002, 2.307356e+003
2.208811e+002, 3.065607e+003
2.210132e+002, 2.181117e+003
2.211454e+002, 3.049097e+003
2.212775e+002, 2.670966e+003
2.214097e+002, 2.533332e+003
2.215418e+002, 2.461165e+003
2.216740e+002, 3.079874e+003
2.218062e+002, 2.079689e+003
2.219383e+002, 2.946913e+003
2.220705e+002, 2.605345e+003
2.222026e+002, 3.223522e+003
2.223348e+002, 2.627835e+003
2.224669e+002, 3.231793e+003
2.225991e+002, 2.610316e+003
2.227313e+002, 3.080516e+003
2.228634e+002, 2.948021e+003
2.229956e+002, 3.179577e+003
2.231277e+002, 2.977380e+003
2.232599e+002, 2.963468e+003
2.233921e+002, 2.199588e+003
2.235242e+002, 3.255859e+003
2.236564e+002, 2.655400e+003
2.237885e+002, 2.703867e+003
2.239207e+002, 2.719625e+003
2.240529e+002, 2.902014e+003
2.241850e+002, 2.787041e+003
2.243172e+002, 3.036417e+003
2.244493e+002, 2.850209e+003
2.245815e+002, 2.435956e+003
2.247137e+002, 3.052186e+003
2.248458e+002, 2.503016e+003
2.249780e+002, 2.231551e+003
2.251101e+002, 2.872788e+003
2.252423e+002, 3.063821e+003
2.253745e+002, 2.816517e+003
2.255066e+002, 2.466815e+003
2.256388e+002, 2.668437e+003
2.257709e+002, 2.469853e+003
2.259031e+002, 2.578261e+003
2.260352e+002, 2.357136e+003
2.261674e+002, 2.189821e+003
2.262996e+002, 2.760433e+003
2.264317e+002, 2.561344e+003
2.265639e+002, 2.651674e+003
2.266960e+002, 2.900607e+003
2.268282e+002, 2.212877e+003
2.269604e+002, 1.915954e+003
2.270925e+002, 2.114552e+003
2.272247e+002, 2.598383e+003
2.273568e+002, 2.398466e+003
2.274890e+002, 2.688492e+003
2.276211e+002, 2.358727e+003
2.277533e+002, 2.212793e+003
2.278855e+002, 2.619625e+003
2.280176e+002, 2.571681e+003
2.281498e+002, 2.873629e+003
2.282819e+002, 2.689501e+003
2.284141e+002, 3.235236e+003
2.285462e+002, 1.773086e+003
2.286784e+002, 2.776475e+003
2.288106e+002, 2.824982e+003
2.289427e+002, 2.281850e+003
2.290749e+002, 2.233221e+003
2.292070e+002, 2.700265e+003
2.293392e+002, 2.388059e+003
2.294714e+002, 2.927743e+003
2.296035e+002, 2.537122e+003
2.297357e+002, 2.395656e+003
2.298678e+002, 2.770694e+003
2.300000e+002, 2.947037e+003
2.301322e+002, 1.738702e+003
2.302643e+002, 2.266073e+003
2.303965e+002, 2.328497e+003
2.305286e+002, 2.259021e+003
2.306608e+002, 2.116216e+003
2.307930e+002, 2.496609e+003
2.309251e+002, 2.018598e+003
2.310573e+002, 2.671718e+003
2.311894e+002, 2.228871e+003
2.313216e+002, 2.307290e+003
2.314538e+002, 2.483143e+003
2.315859e+002, 2.034883e+003
2.317181e+002, 2.112723e+003
2.318502e+002, 2.576956e+003
2.319824e+002, 2.229637e+003
2.321145e+002, 2.158734e+003
2.322467e+002, 2.482376e+003
2.323789e+002, 2.285542e+003
2.325110e+002, 2.180548e+003
2.326432e+002, 1.842086e+003
2.327753e+002, 1.857970e+003
2.329075e+002, 1.840140e+003
2.330396e+002, 2.290288e+003
2.331718e+002, 2.388670e+003
2.333040e+002, 2.047667e+003
2.334361e+002, 2.081029e+003
2.335683e+002, 2.223307e+003
2.337004e+002, 1.488673e+003
2.338326e+002, 2.095982e+003
2.339648e+002, 1.755768e+003
2.340969e+002, 2.179930e+003
2.342291e+002, 2.570608e+003
2.343612e+002, 2.105022e+003
2.344934e+002, 1.792488e+003
2.346255e+002, 1.849256e+003
2.347577e+002, 2.429578e+003
2.348899e+002, 1.512451e+003
2.350220e+002, 2.330182e+003
2.351542e+002, 1.761200e+003
2.352863e+002, 2.196444e+003
2.354185e+002, 2.014913e+003
2.355507e+002, 2.245924e+003
2.356828e+002, 1.866116e+003
2.358150e+002, 2.461110e+003
2.359471e+002, 2.034821e+003
2.360793e+002, 2.221407e+003
2.362115e+002, 2.064397e+003
2.363436e+002, 1.952005e+003
2.364758e+002, 1.796612e+003
2.366079e+002, 2.835612e+003
2.367401e+002, 1.427499e+003
2.368723e+002, 2.183542e+003
2.370044e+002, 2.191378e+003
2.371366e+002, 2.773899e+003
2.372687e+002, 2.232887e+003
2.374009e+002, 2.085969e+003
2.375330e+002, 1.934272e+003
2.376652e+002, 1.815116e+003
2.377974e+002, 1.458887e+003
2.379295e+002, 1.902541e+003
2.380617e+002, 1.728576e+003
2.381938e+002, 2.067173e+003
2.383260e+002, 1.927730e+003
2.384581e+002, 1.711708e+003
2.385903e+002, 1.970167e+003
2.387225e+002, 2.342552e+003
2.388546e+002, 1.537840e+003
2.389868e+002, 2.635752e+003
2.391189e+002, 2.118089e+003
2.392511e+002, 1.997402e+003
2.393833e+002, 1.970077e+003
2.395154e+002, 2.009603e+003
2.396476e+002, 2.333605e+003
2.397797e+002, 2.272943e+003
2.399119e+002, 1.660107e+003
2.400441e+002, 1.427130e+003
2.401762e+002, 2.407979e+003
2.403084e+002, 2.222978e+003
2.404405e+002, 1.431116e+003
2.405727e+002, 1.855260e+003
2.407048e+002, 1.891193e+003
2.408370e+002, 2.381905e+003
2.409692e+002, 1.736928e+003
2.411013e+002, 2.333869e+003
2.412335e+002, 1.604659e+003
2.413656e+002, 2.536588e+003
2.414978e+002, 1.931182e+003
2.416300e+002, 1.648802e+003
2.417621e+002, 2.073292e+003
2.418943e+002, 2.513399e+003
2.420264e+002, 1.232689e+003
2.421586e+002, 2.410149e+003
2.422908e+002, 2.118071e+003
2.424229e+002, 1.975113e+003
2.425551e+002, 1.882034e+003
2.426872e+002, 2.387201e+003
2.428194e+002, 1.856027e+003
2.429515e+002, 2.139511e+003
2.430837e+002, 1.840817e+003
2.432159e+002, 1.624964e+003
2.433480e+002, 1.718150e+003
2.434802e+002, 2.567766e+003
2.436123e+002, 1.592877e+003
2.437445e+002, 1.868883e+003
2.438766e+002, 2.151717e+003
2.440088e+002, 2.089834e+003
2.441410e+002, 1.938278e+003
2.442731e+002, 2.008083e+003
2.444053e+002, 1.965046e+003
2.445374e+002, 2.213224e+003
2.446696e+002, 1.692916e+003
2.448018e+002, 1.756831e+003
2.449339e+002, 1.915473e+003
2.450661e+002, 2.318541e+003
2.451982e+002, 1.507859e+003
2.453304e+002, 1.235059e+003
2.454626e+002, 2.166141e+003
2.455947e+002, 2.295298e+003
2.457269e+002, 2.213791e+003
2.458590e+002, 2.062685e+003
2.459912e+002, 1.787546e+003
2.461234e+002, 2.252429e+003
2.462555e+002, 1.773465e+003
2.463877e+002, 1.697453e+003
2.465198e+002, 1.924938e+003
2.466520e+002, 1.755721e+003
2.467841e+002, 1.874383e+003
2.469163e+002, 2.253401e+003
2.470485e+002, 1.594619e+003
2.471806e+002, 1.828068e+003
2.473128e+002, 2.087197e+003
2.474449e+002, 2.073188e+003
2.475771e+002, 1.435989e+003
2.477092e+002, 2.039242e+003
2.478414e+002, 2.161747e+003
2.479736e+002, 1.755984e+003
2.481057e+002, 1.889316e+003
2.482379e+002, 1.985476e+003
2.483700e+002, 1.671510e+003
2.485022e+002, 1.815930e+003
2.486344e+002, 2.125007e+003
2.487665e+002, 1.444957e+003
2.488987e+002, 2.222015e+003
2.490308e+002, 1.979401e+003
2.491630e+002, 1.652074e+003
2.492952e+002, 2.145466e+003
2.494273e+002, 1.108491e+003
2.495595e+002, 1.804838e+003
2.496916e+002, 1.996365e+003
2.498238e+002, 1.341253e+003
2.499559e+002, 1.909047e+003
2.500881e+002, 1.755812e+003
2.502203e+002, 1.799485e+003
2.503524e+002, 1.207433e+003
2.504846e+002, 1.905000e+003
2.506167e+002, 2.296491e+003
2.507489e+002, 1.621925e+003
2.508811e+002, 1.566932e+003
2.510132e+002, 1.945391e+003
2.511454e+002, 1.325144e+003
2.512775e+002, 1.671312e+003
2.514097e+002, 1.737650e+003
2.515419e+002, 1.043447e+003
2.516740e+002, 1.670608e+003
2.518062e+002, 1.700028e+003
2.519383e+002, 1.153456e+003
2.520705e+002, 2.163373e+003
2.522026e+002, 1.704139e+003
2.523348e+002, 1.484964e+003
2.524670e+002, 1.308111e+003
2.525991e+002, 1.717277e+003
2.527313e+002, 1.587630e+003
2.528634e+002, 1.478013e+003
2.529956e+002, 1.583426e+003
2.531277e+002, 1.326899e+003
2.532599e+002, 1.822757e+003
2.533921e+002, 1.634032e+003
2.535242e+002, 8.693792e+002
2.536564e+002, 1.616517e+003
2.537885e+002, 1.324727e+003
2.539207e+002, 1.259285e+003
2.540529e+002, 1.242913e+003
2.541850e+002, 1.865616e+003
2.543172e+002, 1.152673e+003
2.544493e+002, 1.732224e+003
2.545815e+002, 1.776144e+003
2.547137e+002, 1.067391e+003
2.548458e+002, 1.624514e+003
2.549780e+002, 1.779949e+003
2.551101e+002, 9.819481e+002
2.552423e+002, 1.702828e+003
2.553745e+002, 2.053027e+003
2.555066e+002, 9.980690e+002
2.556388e+002, 1.928923e+003
2.557709e+002, 1.701589e+003
2.559031e+002, 1.770649e+003
2.560352e+002, 1.519875e+003
2.561674e+002, 1.865527e+003
2.562996e+002, 1.619352e+003
2.564317e+002, 1.776817e+003
2.565639e+002, 1.633169e+003
2.566960e+002, 1.284080e+003
2.568282e+002, 1.631418e+003
2.569604e+002, 1.983765e+003
2.570925e+002, 1.012182e+003
2.572247e+002, 1.715978e+003
2.573568e+002, 1.936938e+003
2.574890e+002, 1.090853e+003
2.576212e+002, 1.755038e+003
2.577533e+002, 1.431074e+003
2.578855e+002, 1.404594e+003
2.580176e+002, 1.655804e+003
2.581498e+002, 1.278132e+003
2.582819e+002, 1.734151e+003
2.584141e+002, 1.736966e+003
2.585463e+002, 1.575370e+003
2.586784e+002, 1.116306e+003
2.588106e+002, 2.137490e+003
2.589427e+002, 1.552987e+003
2.590749e+002, 1.222979e+003
2.592070e+002, 1.863108e+003
2.593392e+002, 1.863803e+003
2.594714e+002, 1.569456e+003
2.596035e+002, 1.532811e+003
2.597357e+002, 1.514494e+003
2.598679e+002, 1.424092e+003
2.600000e+002, 1.511196e+003
2.601321e+002, 1.422740e+003
2.602643e+002, 1.185891e+003
2.603965e+002, 1.777735e+003
2.605286e+002, 1.534725e+003
2.606608e+002, 1.347912e+003
2.607930e+002, 1.709891e+003
2.609251e+002, 2.014179e+003
2.610573e+002, 1.864885e+003
2.611894e+002, 1.693055e+003
2.613216e+002, 1.582514e+003
2.614537e+002, 7.469961e+002
2.615859e+002, 1.610170e+003
2.617181e+002, 1.476815e+003
2.618502e+002, 1.052872e+003
2.619824e+002, 1.773347e+003
2.621145e+002, 1.570475e+003
2.622467e+002, 9.270167e+002
2.623788e+002, 1.819575e+003
2.625110e+002, 1.615508e+003
2.626432e+002, 1.861650e+003
2.627753e+002, 1.232768e+003
2.629075e+002, 1.420798e+003
2.630396e+002, 1.512516e+003
2.631718e+002, 1.505626e+003
2.633040e+002, 1.573328e+003
2.634361e+002, 1.331278e+003
2.635683e+002, 1.360967e+003
2.637004e+002, 1.767696e+003
2.638326e+002, 1.679300e+003
2.639648e+002, 1.301289e+003
2.640969e+002, 1.336743e+003
2.642291e+002, 1.724662e+003
2.643612e+002, 1.619633e+003
2.644934e+002, 1.528677e+003
2.646255e+002, 1.188352e+003
2.647577e+002, 1.785949e+003
2.648899e+002, 9.413096e+002
2.650220e+002, 1.426309e+003
2.651542e+002, 1.612605e+003
2.652863e+002, 1.599618e+003
2.654185e+002, 1.429241e+003
2.655507e+002, 1.412037e+003
2.656828e+002, 1.627943e+003
2.658150e+002, 1.639258e+003
2.659471e+002, 1.295388e+003
2.660793e+002, 1.499493e+003
2.662115e+002, 1.529746e+003
2.663436e+002, 1.940204e+003
2.664758e+002, 1.100256e+003
2.666079e+002, 1.273512e+003
2.667401e+002, 1.585240e+003
2.668723e+002, 1.641769e+003
2.670044e+002, 1.486359e+003
2.671366e+002, 1.145368e+003
2.672687e+002, 1.809060e+003
2.674009e+002, 9.307914e+002
2.675330e+002, 1.879283e+003
2.676652e+002, 1.073582e+003
2.677974e+002, 1.218610e+003
2.679295e+002, 1.670039e+003
2.680617e+002, 1.505162e+003
2.681938e+002, 1.578838e+003
2.683260e+002, 1.548027e+003
2.684581e+002, 1.280212e+003
2.685903e+002, 1.890206e+003
2.687225e+002, 1.794515e+003
2.688546e+002, 1.259919e+003
2.689868e+002, 1.184307e+003
2.691190e+002, 1.437781e+003
2.692511e+002, 1.205441e+003
2.693832e+002, 9.442845e+002
2.695154e+002, 1.584661e+003
2.696476e+002, 1.493768e+003
2.697797e+002, 1.530193e+003
2.699119e+002, 1.209267e+003
2.700441e+002, 1.847648e+003
2.701762e+002, 1.171732e+003
2.703083e+002, 1.058790e+003
2.704406e+002, 1.459494e+003
2.705727e+002, 1.613859e+003
2.707048e+002, 1.555910e+003
2.708370e+002, 1.538408e+003
2.709692e+002, 1.472574e+003
2.711013e+002, 1.514906e+003
2.712335e+002, 1.561267e+003
2.713657e+002, 9.466216e+002
2.714978e+002, 1.573001e+003
2.716299e+002, 1.419639e+003
2.717621e+002, 1.577002e+003
2.718943e+002, 7.324962e+002
2.720264e+002, 1.406038e+003
2.721586e+002, 1.407229e+003
2.722908e+002, 1.949496e+003
2.724229e+002, 8.441699e+002
2.725551e+002, 1.362409e+003
2.726872e+002, 1.483051e+003
2.728194e+002, 1.485971e+003
2.729515e+002, 5.664199e+002
2.730837e+002, 1.399751e+003
2.732159e+002, 1.410852e+003
2.733480e+002, 1.735740e+003
2.734802e+002, 1.082163e+003
2.736123e+002, 1.325502e+003
2.737445e+002, 8.736783e+002
2.738766e+002, 1.744126e+003
2.740088e+002, 9.145822e+002
2.741410e+002, 1.158858e+003
2.742731e+002, 1.091700e+003
2.744053e+002, 1.629838e+003
2.745374e+002, 7.627924e+002
2.746696e+002, 1.454349e+003
2.748018e+002, 1.364219e+003
2.749339e+002, 9.917310e+002
2.750661e+002, 1.593799e+003
2.751982e+002, 1.472358e+003
2.753304e+002, 9.337883e+002
2.754626e+002, 1.709157e+003
2.755947e+002, 1.373267e+003
2.757269e+002, 1.258658e+003
2.758590e+002, 1.394071e+003
2.759912e+002, 9.933295e+002
2.761234e+002, 1.540872e+003
2.762555e+002, 1.536366e+003
2.763877e+002, 1.132665e+003
2.765198e+002, 1.092581e+003
2.766520e+002, 1.324481e+003
2.767841e+002, 1.193015e+003
2.769163e+002, 1.315523e+003
2.770485e+002, 1.630454e+003
2.771806e+002, 1.479809e+003
2.773128e+002, 7.242228e+002
2.774449e+002, 1.465996e+003
2.775771e+002, 1.078296e+003
2.777093e+002, 7.239832e+002
2.778414e+002, 9.987682e+002
2.779736e+002, 1.048771e+003
2.781057e+002, 1.124340e+003
2.782379e+002, 1.938321e+003
2.783701e+002, 1.432038e+003
2.785022e+002, 1.538647e+003
2.786344e+002, 1.201074e+003
2.787665e+002, 1.694413e+003
2.788987e+002, 8.415711e+002
2.790308e+002, 1.594230e+003
2.791630e+002, 1.215558e+003
2.792952e+002, 1.406446e+003
2.794273e+002, 1.501741e+003
2.795595e+002, 1.085203e+003
2.796917e+002, 6.024985e+002
2.798238e+002, 1.307661e+003
2.799559e+002, 8.994055e+002
2.800881e+002, 7.391771e+002
2.802203e+002, 1.008620e+003
2.803524e+002, 1.129681e+003
2.804846e+002, 9.314331e+002
2.806168e+002, 1.109014e+003
2.807489e+002, 1.065691e+003
2.808810e+002, 1.041213e+003
2.810132e+002, 9.704690e+002
2.811454e+002, 1.302582e+003
2.812775e+002, 1.002206e+003
2.814097e+002, 9.495522e+002
2.815419e+002, 1.403197e+003
2.816740e+002, 1.263229e+003
2.818062e+002, 1.464872e+003
2.819383e+002, 1.602500e+003
2.820705e+002, 1.123499e+003
2.822026e+002, 1.694064e+003
2.823348e+002, 1.433672e+003
2.824670e+002, 1.730737e+003
2.825991e+002, 1.834845e+003
2.827313e+002, 2.289374e+003
2.828634e+002, 1.517209e+003
2.829956e+002, 1.676742e+003
2.831277e+002, 2.734132e+003
2.832599e+002, 2.793802e+003
2.833921e+002, 3.543423e+003
2.835242e+002, 3.873542e+003
2.836564e+002, 3.853621e+003
2.837885e+002, 5.133688e+003
2.839207e+002, 6.078637e+003
2.840529e+002, 6.916052e+003
2.841850e+002, 7.839036e+003
2.843172e+002, 8.419431e+003
2.844493e+002, 9.281882e+003
2.845815e+002, 1.007623e+004
2.847137e+002, 1.072037e+004
2.848458e+002, 1.085220e+004
2.849780e+002, 1.106730e+004
2.851101e+002, 1.170860e+004
2.852423e+002, 1.127104e+004
2.853745e+002, 1.109834e+004
2.855066e+002, 1.081055e+004
2.856388e+002, 1.099545e+004
2.857709e+002, 1.027723e+004
2.859031e+002, 1.064423e+004
2.860352e+002, 1.047830e+004
2.861674e+002, 1.142496e+004
2.862996e+002, 1.045491e+004
2.864317e+002, 1.031836e+004
2.865639e+002, 9.227303e+003
2.866960e+002, 1.019369e+004
2.868282e+002, 1.017379e+004
2.869604e+002, 9.600449e+003
2.870925e+002, 9.498008e+003
2.872247e+002, 9.622882e+003
2.873568e+002, 9.756457e+003
2.874890e+002, 9.408853e+003
2.876212e+002, 8.998826e+003
2.877533e+002, 9.903741e+003
2.878855e+002, 9.387138e+003
2.880176e+002, 9.711103e+003
2.881498e+002, 8.856077e+003
2.882819e+002, 9.982275e+003
2.884141e+002, 9.825319e+003
2.885463e+002, 1.029245e+004
2.886784e+002, 1.028132e+004
2.888106e+002, 9.826147e+003
2.889427e+002, 1.074373e+004
2.890749e+002, 1.129409e+004
2.892070e+002, 1.055518e+004
2.893392e+002, 1.125334e+004
2.894714e+002, 1.202899e+004
2.896035e+002, 1.212788e+004
2.897357e+002, 1.265152e+004
2.898679e+002, 1.327701e+004
2.900000e+002, 1.366373e+004
2.901321e+002, 1.393388e+004
2.902643e+002, 1.411745e+004
2.903965e+002, 1.471507e+004
2.905286e+002, 1.561397e+004
2.906608e+002, 1.584563e+004
2.907930e+002, 1.612530e+004
2.909251e+002, 1.693183e+004
2.910573e+002, 1.719432e+004
2.911894e+002, 1.726010e+004
2.913216e+002, 1.768289e+004
2.914537e+002, 1.787838e+004
2.915859e+002, 1.832245e+004
2.917181e+002, 1.842176e+004
2.918502e+002, 1.878372e+004
2.919824e+002, 1.807613e+004
2.921145e+002, 1.915371e+004
2.922467e+002, 1.948917e+004
2.923788e+002, 1.863813e+004
2.925110e+002, 1.902941e+004
2.926432e+002, 1.934211e+004
2.927753e+002, 1.968302e+004
2.929075e+002, 1.952389e+004
2.930396e+002, 1.950957e+004
2.931718e+002, 1.924525e+004
2.933040e+002, 1.989173e+004
2.934361e+002, 1.928247e+004
2.935683e+002, 1.985794e+004
2.937004e+002, 1.952212e+004
2.938326e+002, 1.986859e+004
2.939648e+002, 1.956485e+004
2.940969e+002, 2.012843e+004
2.942291e+002, 2.016498e+004
2.943612e+002, 1.952063e+004
2.944934e+002, 1.969854e+004
2.946255e+002, 2.009821e+004
2.947577e+002, 1.950675e+004
2.948899e+002, 2.030019e+004
2.950220e+002, 2.023043e+004
2.951542e+002, 2.024311e+004
2.952863e+002, 2.022383e+004
2.954185e+002, 2.002321e+004
2.955507e+002, 1.928643e+004
2.956828e+002, 2.022436e+004
2.958150e+002, 2.038087e+004
2.959471e+002, 2.008124e+004
2.960793e+002, 2.049618e+004
2.962115e+002, 2.070164e+004
2.963436e+002, 1.994506e+004
2.964758e+002, 2.082126e+004
2.966079e+002, 2.025781e+004
2.967401e+002, 2.038217e+004
2.968723e+002, 2.048229e+004
2.970044e+002, 2.047247e+004
2.971366e+002, 1.977018e+004
2.972687e+002, 2.041377e+004
2.974009e+002, 2.045718e+004
2.975330e+002, 2.014289e+004
2.976652e+002, 2.014420e+004
2.977974e+002, 2.035232e+004
2.979295e+002, 2.071103e+004
2.980617e+002, 2.050775e+004
2.981938e+002, 2.016709e+004
2.983260e+002, 1.983935e+004
2.984581e+002, 2.011712e+004
2.985903e+002, 1.980960e+004
2.987225e+002, 1.978744e+004
2.988546e+002, 2.038497e+004
2.989868e+002, 2.032274e+004
2.991190e+002, 1.989049e+004
2.992511e+002, 1.974522e+004
2.993832e+002, 1.962183e+004
2.995154e+002, 1.955341e+004
2.996476e+002, 1.949999e+004
2.997797e+002, 1.964827e+004
2.999119e+002, 1.874380e+004
3.000441e+002, 1.923860e+004
3.001762e+002, 1.903048e+004
3.003083e+002, 1.907479e+004
3.004406e+002, 1.889594e+004
3.005727e+002, 1.951537e+004
3.007048e+002, 1.908320e+004
3.008370e+002, 1.913068e+004
3.009692e+002, 1.952135e+004
3.011013e+002, 1.979492e+004
3.012335e+002, 1.878216e+004
3.013657e+002, 1.887752e+004
3.014978e+002, 1.813043e+004
3.016299e+002, 1.856605e+004
3.017621e+002, 1.852983e+004
3.018943e+002, 1.841182e+004
3.020264e+002, 1.840238e+004
3.021586e+002, 1.849724e+004
3.022908e+002, 1.794374e+004
3.024229e+002, 1.821618e+004
3.025551e+002, 1.784361e+004
3.026872e+002, 1.785127e+004
3.028194e+002, 1.747886e+004
3.029515e+002, 1.794343e+004
3.030837e+002, 1.727571e+004
3.032159e+002, 1.781238e+004
3.033480e+002, 1.819850e+004
3.034802e+002, 1.719706e+004
3.036123e+002, 1.739116e+004
3.037445e+002, 1.748375e+004
3.038766e+002, 1.672911e+004
3.040088e+002, 1.695540e+004
3.041410e+002, 1.659023e+004
3.042731e+002, 1.710579e+004
3.044053e+002, 1.700857e+004
3.045374e+002, 1.640155e+004
3.046696e+002, 1.590402e+004
3.048018e+002, 1.712006e+004
3.049339e+002, 1.678834e+004
3.050661e+002, 1.587694e+004
3.051982e+002, 1.616525e+004
3.053304e+002, 1.634491e+004
3.054626e+002, 1.541754e+004
3.055947e+002, 1.582118e+004
3.057269e+002, 1.544927e+004
3.058590e+002, 1.578773e+004
3.059912e+002, 1.552776e+004
3.061234e+002, 1.520588e+004
3.062555e+002, 1.508158e+004
3.063877e+002, 1.493003e+004
3.065198e+002, 1.513169e+004
3.066520e+002, 1.495826e+004
3.067841e+002, 1.431538e+004
3.069163e+002, 1.508234e+004
3.070485e+002, 1.501800e+004
3.071806e+002, 1.444282e+004
3.073128e+002, 1.375779e+004
3.074449e+002, 1.393883e+004
3.075771e+002, 1.357341e+004
3.077093e+002, 1.330059e+004
3.078414e+002, 1.307439e+004
3.079736e+002, 1.410006e+004
3.081057e+002, 1.329038e+004
3.082379e+002, 1.304899e+004
3.083701e+002, 1.281746e+004
3.085022e+002, 1.354874e+004
3.086344e+002, 1.275050e+004
3.087665e+002, 1.283910e+004
3.088987e+002, 1.237411e+004
3.090308e+002, 1.271086e+004
3.091630e+002, 1.255224e+004
3.092952e+002, 1.248480e+004
3.094273e+002, 1.235675e+004
3.095595e+002, 1.293215e+004
3.096917e+002, 1.275249e+004
3.098238e+002, 1.237812e+004
3.099559e+002, 1.234920e+004
3.100881e+002, 1.238578e+004
3.102203e+002, 1.142771e+004
3.103524e+002, 1.187519e+004
3.104846e+002, 1.150877e+004
3.106168e+002, 1.192001e+004
3.107489e+002, 1.171989e+004
3.108810e+002, 1.204362e+004
3.110132e+002, 1.151581e+004
3.111454e+002, 1.146860e+004
3.112775e+002, 1.135391e+004
3.114097e+002, 1.078356e+004
3.115419e+002, 1.201528e+004
3.116740e+002, 1.118543e+004
3.118062e+002, 1.180234e+004
3.119383e+002, 1.110008e+004
3.120705e+002, 1.124483e+004
3.122026e+002, 1.038071e+004
3.123348e+002, 1.108163e+004
3.124670e+002, 1.119502e+004
3.125991e+002, 1.063323e+004
3.127313e+002, 1.119818e+004
3.128634e+002, 1.159774e+004
3.129956e+002, 1.068917e+004
3.131277e+002, 1.063477e+004
3.132599e+002, 1.071963e+004
3.133921e+002, 1.109072e+004
3.135242e+002, 1.067360e+004
3.136564e+002, 1.016223e+004
3.137885e+002, 1.019985e+004
3.139207e+002, 1.091778e+004
3.140529e+002, 1.045269e+004
3.141850e+002, 9.704287e+003
3.143172e+002, 9.824896e+003
3.144493e+002, 1.054819e+004
3.145815e+002, 9.972916e+003
3.147137e+002, 1.031590e+004
3.148458e+002, 1.007850e+004
3.149780e+002, 1.040949e+004
3.151101e+002, 1.054613e+004
3.152423e+002, 9.982165e+003
3.153745e+002, 9.918739e+003
3.155066e+002, 1.034022e+004
3.156388e+002, 1.025845e+004
3.157709e+002, 9.403633e+003
3.159031e+002, 9.887114e+003
3.160352e+002, 1.012175e+004
3.161674e+002, 9.692088e+003
3.162996e+002, 1.003683e+004
3.164317e+002, 1.007510e+004
3.165639e+002, 1.003688e+004
3.166960e+002, 9.858248e+003
3.168282e+002, 9.598530e+003
3.169604e+002, 9.340991e+003
3.170925e+002, 1.009627e+004
3.172247e+002, 9.690227e+003
3.173568e+002, 9.528550e+003
3.174890e+002, 1.009556e+004
3.176212e+002, 9.714885e+003
3.177533e+002, 9.499083e+003
3.178855e+002, 9.330811e+003
3.180176e+002, 9.880612e+003
3.181498e+002, 9.979687e+003
3.182819e+002, 9.630144e+003
3.184141e+002, 9.890708e+003
3.185463e+002, 9.874356e+003
3.186784e+002, 9.782483e+003
3.188106e+002, 9.767254e+003
3.189427e+002, 9.940148e+003
3.190749e+002, 9.922530e+003
3.192070e+002, 9.956455e+003
3.193392e+002, 9.714820e+003
3.194714e+002, 9.729420e+003
3.196035e+002, 9.670451e+003
3.197357e+002, 9.351221e+003
3.198679e+002, 1.009647e+004
3.200000e+002, 9.437461e+003
3.201321e+002, 9.251155e+003
3.202643e+002, 1.006196e+004
3.203965e+002, 1.020574e+004
3.205286e+002, 9.674321e+003
3.206608e+002, 9.442049e+003
3.207930e+002, 9.482230e+003
3.209251e+002, 1.004788e+004
3.210573e+002, 9.383228e+003
3.211894e+002, 9.806411e+003
3.213216e+002, 8.879552e+003
3.214537e+002, 9.270215e+003
3.215859e+002, 9.669233e+003
3.217181e+002, 9.104008e+003
3.218502e+002, 8.892869e+003
3.219824e+002, 9.654971e+003
3.221145e+002, 9.595785e+003
3.222467e+002, 8.998288e+003
3.223788e+002, 9.776217e+003
3.225110e+002, 8.887950e+003
3.226432e+002, 9.097547e+003
3.227753e+002, 9.455381e+003
3.229075e+002, 8.815854e+003
3.230396e+002, 9.438084e+003
3.231718e+002, 9.580942e+003
3.233040e+002, 9.033750e+003
3.234361e+002, 9.073382e+003
3.235683e+002, 9.299285e+003
3.237004e+002, 9.284415e+003
3.238326e+002, 9.076563e+003
3.239648e+002, 8.950466e+003
3.240969e+002, 9.263466e+003
3.242291e+002, 9.411039e+003
3.243612e+002, 9.074400e+003
3.244934e+002, 8.529714e+003
3.246255e+002, 9.230676e+003
3.247577e+002, 9.118337e+003
3.248899e+002, 9.269330e+003
3.250220e+002, 9.653109e+003
3.251542e+002, 9.385976e+003
3.252863e+002, 8.899636e+003
3.254185e+002, 9.120205e+003
3.255507e+002, 9.177176e+003
3.256828e+002, 9.214807e+003
3.258150e+002, 9.118379e+003
3.259471e+002, 9.393698e+003
3.260793e+002, 8.821139e+003
3.262115e+002, 9.232429e+003
3.263436e+002, 9.793895e+003
3.264758e+002, 9.111104e+003
3.266079e+002, 8.346779e+003
3.267401e+002, 8.878567e+003
3.268723e+002, 9.212739e+003
3.270044e+002, 9.321560e+003
3.271366e+002, 9.571719e+003
3.272687e+002, 8.532994e+003
3.274009e+002, 9.686823e+003
3.275330e+002, 8.643154e+003
3.276652e+002, 8.788344e+003
3.277974e+002, 9.261579e+003
3.279295e+002, 8.855431e+003
3.280617e+002, 8.444603e+003
3.281938e+002, 9.193438e+003
3.283260e+002, 9.200215e+003
3.284581e+002, 8.812231e+003
3.285903e+002, 8.757998e+003
3.287225e+002, 9.148529e+003
3.288546e+002, 8.677950e+003
3.289868e+002, 8.507151e+003
3.291190e+002, 8.962287e+003
3.292511e+002, 8.766475e+003
3.293832e+002, 8.295085e+003
3.295154e+002, 9.135140e+003
3.296476e+002, 8.861783e+003
3.297797e+002, 9.023184e+003
3.299119e+002, 8.731433e+003
3.300441e+002, 8.597861e+003
3.301762e+002, 8.802709e+003
3.303083e+002, 8.825705e+003
3.304406e+002, 8.197856e+003
3.305727e+002, 8.822339e+003
3.307048e+002, 8.982465e+003
3.308370e+002, 8.336913e+003
3.309692e+002, 8.589841e+003
3.311013e+002, 8.565047e+003
3.312335e+002, 8.283592e+003
3.313657e+002, 9.028904e+003
3.314978e+002, 9.208301e+003
3.316299e+002, 8.591474e+003
3.317621e+002, 8.555971e+003
3.318943e+002, 8.447618e+003
3.320264e+002, 8.324286e+003
3.321586e+002, 8.634601e+003
3.322908e+002, 8.484205e+003
3.324229e+002, 8.416152e+003
3.325551e+002, 8.500598e+003
3.326872e+002, 8.028038e+003
3.328194e+002, 8.369558e+003
3.329515e+002, 8.853042e+003
3.330837e+002, 8.346147e+003
3.332159e+002, 7.871166e+003
3.333480e+002, 8.601615e+003
3.334802e+002, 8.156043e+003
3.336123e+002, 8.423938e+003
3.337445e+002, 7.833873e+003
3.338766e+002, 8.723235e+003
3.340088e+002, 7.981895e+003
3.341410e+002, 9.155927e+003
3.342731e+002, 8.374452e+003
3.344053e+002, 7.934036e+003
3.345374e+002, 8.436943e+003
3.346696e+002, 8.891725e+003
3.348018e+002, 8.007092e+003
3.349339e+002, 8.573854e+003
3.350661e+002, 8.584771e+003
3.351982e+002, 8.520169e+003
3.353304e+002, 8.321677e+003
3.354626e+002, 7.775397e+003
3.355947e+002, 8.275994e+003
3.357269e+002, 8.513467e+003
3.358590e+002, 8.116024e+003
3.359912e+002, 7.865062e+003
3.361234e+002, 8.255713e+003
3.362555e+002, 8.390058e+003
3.363877e+002, 7.732574e+003
3.365198e+002, 7.710622e+003
3.366520e+002, 8.044424e+003
3.367841e+002, 8.039889e+003
3.369163e+002, 7.930905e+003
3.370485e+002, 7.969287e+003
3.371806e+002, 7.447302e+003
3.373128e+002, 8.103419e+003
3.374449e+002, 8.231697e+003
3.375771e+002, 7.185483e+003
3.377093e+002, 7.690033e+003
3.378414e+002, 8.217747e+003
3.379736e+002, 7.519100e+003
3.381057e+002, 7.691406e+003
3.382379e+002, 7.718114e+003
3.383701e+002, 7.425387e+003
3.385022e+002, 7.994993e+003
3.386344e+002, 7.731288e+003
3.387665e+002, 7.342647e+003
3.388987e+002, 7.564815e+003
3.390308e+002, 7.646000e+003
3.391630e+002, 7.699302e+003
3.392952e+002, 7.324059e+003
3.394273e+002, 7.390623e+003
3.395595e+002, 7.762147e+003
3.396917e+002, 7.940669e+003
3.398238e+002, 7.822643e+003
3.399559e+002, 7.552212e+003
3.400881e+002, 7.699824e+003
3.402203e+002, 7.568621e+003
3.403524e+002, 7.422763e+003
3.404846e+002, 7.364059e+003
3.406168e+002, 7.475889e+003
3.407489e+002, 7.549709e+003
3.408810e+002, 7.800281e+003
3.410132e+002, 7.460853e+003
3.411454e+002, 7.328774e+003
3.412775e+002, 7.049713e+003
3.414097e+002, 7.403497e+003
3.415419e+002, 6.779609e+003
3.416740e+002, 7.719312e+003
3.418062e+002, 6.713760e+003
3.419383e+002, 7.239723e+003
3.420705e+002, 7.348000e+003
3.422026e+002, 7.606133e+003
3.423348e+002, 7.421631e+003
3.424670e+002, 7.129063e+003
3.425991e+002, 6.571453e+003
3.427313e+002, 6.459744e+003
3.428634e+002, 7.175514e+003
3.429956e+002, 6.797337e+003
3.431277e+002, 7.018853e+003
3.432599e+002, 7.225285e+003
3.433921e+002, 7.114328e+003
3.435242e+002, 6.792719e+003
3.436564e+002, 6.943559e+003
3.437885e+002, 7.317956e+003
3.439207e+002, 6.760114e+003
3.440529e+002, 6.752614e+003
3.441850e+002, 6.787128e+003
3.443172e+002, 7.169185e+003
3.444493e+002, 6.891753e+003
3.445815e+002, 7.188558e+003
3.447137e+002, 7.174869e+003
3.448458e+002, 7.352191e+003
3.449780e+002, 7.133892e+003
3.451101e+002, 7.025228e+003
3.452423e+002, 6.783689e+003
3.453745e+002, 7.302744e+003
3.455066e+002, 6.887795e+003
3.456388e+002, 7.140390e+003
3.457709e+002, 7.150158e+003
3.459031e+002, 6.811297e+003
3.460352e+002, 7.186645e+003
3.461674e+002, 7.149634e+003
3.462996e+002, 6.803052e+003
3.464317e+002, 6.960071e+003
3.465639e+002, 7.377612e+003
3.466960e+002, 6.892213e+003
3.468282e+002, 6.546362e+003
3.469604e+002, 7.417571e+003
3.470925e+002, 6.582430e+003
3.472247e+002, 7.030228e+003
3.473568e+002, 6.582981e+003
3.474890e+002, 6.457428e+003
3.476212e+002, 6.747015e+003
3.477533e+002, 7.330662e+003
3.478855e+002, 6.663430e+003
3.480176e+002, 7.172488e+003
3.481498e+002, 6.529440e+003
3.482819e+002, 6.603046e+003
3.484141e+002, 7.162599e+003
3.485463e+002, 6.763597e+003
3.486784e+002, 6.995701e+003
3.488106e+002, 6.834173e+003
3.489427e+002, 7.355457e+003
3.490749e+002, 6.898696e+003
3.492070e+002, 7.280145e+003
3.493392e+002, 6.881991e+003
3.494714e+002, 6.984111e+003
3.496035e+002, 7.098263e+003
3.497357e+002, 6.886848e+003
3.498679e+002, 6.412272e+003
3.500000e+002, 6.797277e+003
3.501321e+002, 6.705198e+003
3.502643e+002, 6.700302e+003
3.503965e+002, 6.567910e+003
3.505286e+002, 6.932744e+003
3.506608e+002, 6.734401e+003
3.507930e+002, 6.632179e+003
3.509251e+002, 6.577168e+003
3.510573e+002, 7.021349e+003
3.511895e+002, 6.545259e+003
3.513216e+002, 6.859078e+003
3.514537e+002, 7.317173e+003
3.515859e+002, 6.944082e+003
3.517181e+002, 6.729974e+003
3.518502e+002, 6.455767e+003
3.519824e+002, 7.201300e+003
3.521146e+002, 6.340317e+003
3.522467e+002, 6.653337e+003
3.523788e+002, 6.621637e+003
3.525110e+002, 6.513445e+003
3.526432e+002, 6.109434e+003
3.527753e+002, 6.916258e+003
3.529075e+002, 6.668277e+003
3.530397e+002, 6.701318e+003
3.531718e+002, 7.039255e+003
3.533040e+002, 6.515960e+003
3.534361e+002, 6.400799e+003
3.535683e+002, 6.540662e+003
3.537004e+002, 7.114014e+003
3.538326e+002, 6.487811e+003
3.539648e+002, 6.558764e+003
3.540969e+002, 6.818207e+003
3.542291e+002, 6.229907e+003
3.543612e+002, 6.686517e+003
3.544934e+002, 6.397784e+003
3.546255e+002, 5.760294e+003
3.547577e+002, 6.792399e+003
3.548899e+002, 6.838837e+003
3.550220e+002, 6.775386e+003
3.551542e+002, 6.236582e+003
3.552863e+002, 6.463220e+003
3.554185e+002, 6.523383e+003
3.555507e+002, 6.255313e+003
3.556828e+002, 6.211629e+003
3.558150e+002, 6.112600e+003
3.559471e+002, 5.630540e+003
3.560793e+002, 6.550057e+003
3.562114e+002, 6.720320e+003
3.563436e+002, 6.625458e+003
3.564758e+002, 6.230442e+003
3.566079e+002, 6.448207e+003
3.567401e+002, 6.874312e+003
3.568723e+002, 6.446562e+003
3.570044e+002, 6.039843e+003
3.571365e+002, 6.612253e+003
3.572687e+002, 6.749216e+003
3.574009e+002, 6.397798e+003
3.575330e+002, 6.413508e+003
3.576652e+002, 6.618704e+003
3.577974e+002, 6.600152e+003
3.579295e+002, 6.714457e+003
3.580616e+002, 6.211135e+003
3.581938e+002, 6.189712e+003
3.583260e+002, 6.064009e+003
3.584581e+002, 6.306071e+003
3.585903e+002, 6.083005e+003
3.587225e+002, 6.141036e+003
3.588546e+002, 6.373532e+003
3.589868e+002, 6.288208e+003
3.591190e+002, 6.002112e+003
3.592511e+002, 6.032453e+003
3.593832e+002, 6.247181e+003
3.595154e+002, 6.437894e+003
3.596476e+002, 6.381422e+003
3.597797e+002, 6.345553e+003
3.599119e+002, 6.736250e+003
3.600441e+002, 6.391521e+003
3.601762e+002, 5.825623e+003
3.603083e+002, 6.247284e+003
3.604406e+002, 6.240511e+003
3.605727e+002, 5.340547e+003
3.607048e+002, 6.330360e+003
3.608370e+002, 5.889961e+003
3.609692e+002, 6.251270e+003
3.611013e+002, 6.184067e+003
3.612335e+002, 6.582088e+003
3.613657e+002, 6.473220e+003
3.614978e+002, 6.299713e+003
3.616299e+002, 6.239498e+003
3.617621e+002, 6.253734e+003
3.618943e+002, 6.727178e+003
3.620264e+002, 6.438904e+003
3.621586e+002, 5.782540e+003
3.622908e+002, 6.432796e+003
3.624229e+002, 6.602172e+003
3.625551e+002, 5.827493e+003
3.626873e+002, 5.871127e+003
3.628194e+002, 6.212217e+003
3.629515e+002, 6.516789e+003
3.630837e+002, 6.411905e+003
3.632159e+002, 5.631841e+003
3.633480e+002, 6.029759e+003
3.634802e+002, 6.201563e+003
3.636124e+002, 6.321866e+003
3.637445e+002, 5.681616e+003
3.638766e+002, 6.776710e+003
3.640088e+002, 6.519602e+003
3.641410e+002, 5.985685e+003
3.642731e+002, 5.129487e+003
3.644053e+002, 6.487151e+003
3.645375e+002, 5.768713e+003
3.646696e+002, 5.766398e+003
3.648018e+002, 5.766397e+003
3.649339e+002, 5.766397e+003
3.650661e+002, 5.766397e+003
3.651982e+002, 5.766397e+003
#ENDOFDATA   : End Of Data and File