#FORMAT	     : EMSA/MAS Spectral Data File
#VERSION     : 1.0
#TITLE       : SM315 204eV 15x5s
#DATE        : 
#TIME        : 
#OWNER       : Michael Entrup
#NPOINTS     : 2048
#NCOLUMNS    : 1
#XUNITS      : eV
#YUNITS      : e-
#DATATYPE    : XY
#XPERCHAN    : 3.892060e-002
#OFFSET      : 1.641453e+002
#SIGNALTYPE  : ELS
#BEAMKV      : 200000.000000
#MAGCAM      : 50000.000000
#EMISSION    : 0.000000
#PROBECUR    : 0.000000
#BEAMDIAM    : 0.000000
#SPECTRUM    : Spectral Data Starts Here
1.641453e+002, 5.879705e+003
1.641842e+002, 5.879705e+003
1.642231e+002, 5.879705e+003
1.642621e+002, 5.879705e+003
1.643010e+002, 5.879705e+003
1.643399e+002, 5.879705e+003
1.643788e+002, 5.905916e+003
1.644177e+002, 5.981317e+003
1.644567e+002, 5.738038e+003
1.644956e+002, 6.005108e+003
1.645345e+002, 5.664382e+003
1.645734e+002, 5.765189e+003
1.646123e+002, 5.988441e+003
1.646513e+002, 5.902688e+003
1.646902e+002, 5.463038e+003
1.647291e+002, 5.869892e+003
1.647680e+002, 5.950538e+003
1.648069e+002, 5.887903e+003
1.648459e+002, 5.607259e+003
1.648848e+002, 5.666800e+003
1.649237e+002, 5.738038e+003
1.649626e+002, 5.872581e+003
1.650015e+002, 5.564786e+003
1.650405e+002, 5.733603e+003
1.650794e+002, 5.670566e+003
1.651183e+002, 5.881317e+003
1.651572e+002, 5.688038e+003
1.651962e+002, 5.908333e+003
1.652351e+002, 5.968817e+003
1.652740e+002, 5.743817e+003
1.653129e+002, 5.833469e+003
1.653518e+002, 5.805510e+003
1.653907e+002, 5.550941e+003
1.654297e+002, 5.746774e+003
1.654686e+002, 5.442340e+003
1.655075e+002, 5.682795e+003
1.655464e+002, 5.498119e+003
1.655854e+002, 5.394624e+003
1.656243e+002, 5.734006e+003
1.656632e+002, 5.804033e+003
1.657021e+002, 5.687501e+003
1.657410e+002, 5.644489e+003
1.657800e+002, 5.703764e+003
1.658189e+002, 5.627823e+003
1.658578e+002, 5.779167e+003
1.658967e+002, 5.629705e+003
1.659356e+002, 5.620431e+003
1.659746e+002, 5.560484e+003
1.660135e+002, 5.371505e+003
1.660524e+002, 5.640592e+003
1.660913e+002, 5.555779e+003
1.661302e+002, 5.644355e+003
1.661692e+002, 5.558065e+003
1.662081e+002, 5.708603e+003
1.662470e+002, 5.737097e+003
1.662859e+002, 5.614382e+003
1.663248e+002, 5.345163e+003
1.663638e+002, 5.545833e+003
1.664027e+002, 5.564113e+003
1.664416e+002, 5.700269e+003
1.664805e+002, 5.612097e+003
1.665195e+002, 5.626344e+003
1.665584e+002, 5.703897e+003
1.665973e+002, 5.597447e+003
1.666362e+002, 5.360619e+003
1.666751e+002, 5.654167e+003
1.667141e+002, 5.539382e+003
1.667530e+002, 5.465054e+003
1.667919e+002, 5.209678e+003
1.668308e+002, 5.411291e+003
1.668697e+002, 5.757795e+003
1.669087e+002, 5.458603e+003
1.669476e+002, 5.567608e+003
1.669865e+002, 5.529973e+003
1.670254e+002, 5.666532e+003
1.670643e+002, 5.632527e+003
1.671033e+002, 5.633333e+003
1.671422e+002, 5.530108e+003
1.671811e+002, 5.587500e+003
1.672200e+002, 5.621371e+003
1.672589e+002, 5.699598e+003
1.672979e+002, 5.796103e+003
1.673368e+002, 5.569086e+003
1.673757e+002, 5.311425e+003
1.674146e+002, 5.525807e+003
1.674536e+002, 5.345028e+003
1.674925e+002, 5.423387e+003
1.675314e+002, 5.621237e+003
1.675703e+002, 5.772582e+003
1.676092e+002, 5.518817e+003
1.676481e+002, 5.389517e+003
1.676871e+002, 5.444758e+003
1.677260e+002, 5.496506e+003
1.677649e+002, 5.118280e+003
1.678038e+002, 5.384140e+003
1.678428e+002, 5.178227e+003
1.678817e+002, 5.501344e+003
1.679206e+002, 5.382528e+003
1.679595e+002, 5.319758e+003
1.679984e+002, 5.451074e+003
1.680374e+002, 5.202151e+003
1.680763e+002, 5.180645e+003
1.681152e+002, 5.419892e+003
1.681541e+002, 5.222042e+003
1.681930e+002, 5.337366e+003
1.682320e+002, 5.374866e+003
1.682709e+002, 5.374866e+003
1.683098e+002, 5.285887e+003
1.683487e+002, 5.263576e+003
1.683876e+002, 5.539112e+003
1.684266e+002, 5.321641e+003
1.684655e+002, 5.554973e+003
1.685044e+002, 5.520162e+003
1.685433e+002, 5.463441e+003
1.685822e+002, 5.387769e+003
1.686212e+002, 5.209005e+003
1.686601e+002, 5.397042e+003
1.686990e+002, 5.395565e+003
1.687379e+002, 5.260484e+003
1.687768e+002, 5.113575e+003
1.688158e+002, 5.168280e+003
1.688547e+002, 5.343816e+003
1.688936e+002, 5.129973e+003
1.689325e+002, 5.193549e+003
1.689715e+002, 5.007527e+003
1.690104e+002, 5.330510e+003
1.690493e+002, 5.220565e+003
1.690882e+002, 5.307931e+003
1.691271e+002, 5.311021e+003
1.691660e+002, 5.451747e+003
1.692050e+002, 5.403629e+003
1.692439e+002, 5.298387e+003
1.692828e+002, 5.186559e+003
1.693217e+002, 5.318548e+003
1.693607e+002, 5.266398e+003
1.693996e+002, 5.284946e+003
1.694385e+002, 5.311962e+003
1.694774e+002, 5.295565e+003
1.695163e+002, 5.163441e+003
1.695553e+002, 5.351210e+003
1.695942e+002, 5.340054e+003
1.696331e+002, 5.354839e+003
1.696720e+002, 5.405646e+003
1.697109e+002, 5.314382e+003
1.697499e+002, 5.335887e+003
1.697888e+002, 5.309140e+003
1.698277e+002, 5.179301e+003
1.698666e+002, 5.169624e+003
1.699055e+002, 5.204839e+003
1.699445e+002, 5.160484e+003
1.699834e+002, 5.234274e+003
1.700223e+002, 5.288844e+003
1.700612e+002, 5.374462e+003
1.701001e+002, 5.220833e+003
1.701391e+002, 5.311022e+003
1.701780e+002, 5.173253e+003
1.702169e+002, 5.337769e+003
1.702558e+002, 5.246775e+003
1.702948e+002, 5.265458e+003
1.703337e+002, 5.292070e+003
1.703726e+002, 5.477150e+003
1.704115e+002, 5.272850e+003
1.704504e+002, 5.246640e+003
1.704893e+002, 5.216533e+003
1.705283e+002, 5.138710e+003
1.705672e+002, 4.938576e+003
1.706061e+002, 5.123387e+003
1.706450e+002, 5.385485e+003
1.706840e+002, 4.913441e+003
1.707229e+002, 5.143817e+003
1.707618e+002, 5.112500e+003
1.708007e+002, 5.333736e+003
1.708396e+002, 5.196774e+003
1.708786e+002, 5.211560e+003
1.709175e+002, 5.015726e+003
1.709564e+002, 5.152553e+003
1.709953e+002, 5.221909e+003
1.710342e+002, 4.960887e+003
1.710732e+002, 5.061560e+003
1.711121e+002, 5.142742e+003
1.711510e+002, 5.005242e+003
1.711899e+002, 4.909408e+003
1.712289e+002, 4.895162e+003
1.712678e+002, 5.003898e+003
1.713067e+002, 5.000672e+003
1.713456e+002, 4.875269e+003
1.713845e+002, 5.148925e+003
1.714234e+002, 4.902419e+003
1.714624e+002, 5.039113e+003
1.715013e+002, 4.996371e+003
1.715402e+002, 5.033468e+003
1.715791e+002, 5.090457e+003
1.716181e+002, 5.350539e+003
1.716570e+002, 5.090054e+003
1.716959e+002, 5.090457e+003
1.717348e+002, 5.133063e+003
1.717737e+002, 4.976210e+003
1.718127e+002, 5.124328e+003
1.718516e+002, 5.137366e+003
1.718905e+002, 5.211022e+003
1.719294e+002, 5.108199e+003
1.719683e+002, 5.230512e+003
1.720073e+002, 4.955242e+003
1.720462e+002, 4.785082e+003
1.720851e+002, 5.050000e+003
1.721240e+002, 5.081989e+003
1.721629e+002, 5.097715e+003
1.722019e+002, 5.113038e+003
1.722408e+002, 5.027554e+003
1.722797e+002, 4.883872e+003
1.723186e+002, 5.005645e+003
1.723575e+002, 5.041801e+003
1.723965e+002, 4.815727e+003
1.724354e+002, 4.992743e+003
1.724743e+002, 4.834274e+003
1.725132e+002, 4.949462e+003
1.725521e+002, 5.163844e+003
1.725911e+002, 5.081317e+003
1.726300e+002, 4.861964e+003
1.726689e+002, 4.890457e+003
1.727078e+002, 4.765727e+003
1.727467e+002, 5.046505e+003
1.727857e+002, 5.150940e+003
1.728246e+002, 4.838308e+003
1.728635e+002, 5.088979e+003
1.729024e+002, 5.144488e+003
1.729413e+002, 4.899060e+003
1.729803e+002, 4.774193e+003
1.730192e+002, 4.995027e+003
1.730581e+002, 5.012097e+003
1.730970e+002, 4.907257e+003
1.731360e+002, 4.657124e+003
1.731749e+002, 5.074327e+003
1.732138e+002, 4.847446e+003
1.732527e+002, 5.045564e+003
1.732916e+002, 4.828092e+003
1.733306e+002, 4.866398e+003
1.733695e+002, 4.645565e+003
1.734084e+002, 4.909812e+003
1.734473e+002, 4.674329e+003
1.734862e+002, 4.735484e+003
1.735252e+002, 4.761291e+003
1.735641e+002, 4.878092e+003
1.736030e+002, 4.882930e+003
1.736419e+002, 4.863710e+003
1.736808e+002, 4.952285e+003
1.737198e+002, 4.890593e+003
1.737587e+002, 4.793414e+003
1.737976e+002, 4.694624e+003
1.738365e+002, 4.923253e+003
1.738754e+002, 4.908603e+003
1.739144e+002, 4.709409e+003
1.739533e+002, 4.735215e+003
1.739922e+002, 4.785484e+003
1.740311e+002, 4.800269e+003
1.740701e+002, 4.781721e+003
1.741090e+002, 4.809678e+003
1.741479e+002, 4.709409e+003
1.741868e+002, 4.786693e+003
1.742257e+002, 4.829435e+003
1.742646e+002, 4.555780e+003
1.743036e+002, 4.853763e+003
1.743425e+002, 4.808199e+003
1.743814e+002, 4.894220e+003
1.744203e+002, 4.985081e+003
1.744593e+002, 4.873387e+003
1.744982e+002, 4.907527e+003
1.745371e+002, 4.915726e+003
1.745760e+002, 4.650135e+003
1.746149e+002, 4.748790e+003
1.746539e+002, 4.778494e+003
1.746928e+002, 4.734678e+003
1.747317e+002, 4.758737e+003
1.747706e+002, 4.772714e+003
1.748095e+002, 4.802152e+003
1.748485e+002, 4.686828e+003
1.748874e+002, 4.432662e+003
1.749263e+002, 4.752285e+003
1.749652e+002, 4.762098e+003
1.750042e+002, 4.804167e+003
1.750431e+002, 4.923252e+003
1.750820e+002, 4.774194e+003
1.751209e+002, 4.785350e+003
1.751598e+002, 4.773924e+003
1.751987e+002, 4.517877e+003
1.752377e+002, 4.575538e+003
1.752766e+002, 4.805376e+003
1.753155e+002, 4.462366e+003
1.753544e+002, 4.496371e+003
1.753933e+002, 4.840323e+003
1.754323e+002, 4.781721e+003
1.754712e+002, 4.773388e+003
1.755101e+002, 4.405376e+003
1.755490e+002, 4.649867e+003
1.755880e+002, 4.675000e+003
1.756269e+002, 4.644489e+003
1.756658e+002, 4.686561e+003
1.757047e+002, 4.675537e+003
1.757436e+002, 4.649597e+003
1.757826e+002, 4.613441e+003
1.758215e+002, 4.415861e+003
1.758604e+002, 4.666936e+003
1.758993e+002, 4.594893e+003
1.759382e+002, 4.517473e+003
1.759772e+002, 4.430511e+003
1.760161e+002, 4.725672e+003
1.760550e+002, 4.652420e+003
1.760939e+002, 4.745162e+003
1.761328e+002, 4.525135e+003
1.761718e+002, 4.824597e+003
1.762107e+002, 4.691264e+003
1.762496e+002, 4.781586e+003
1.762885e+002, 4.846371e+003
1.763274e+002, 4.592205e+003
1.763664e+002, 4.486694e+003
1.764053e+002, 4.646640e+003
1.764442e+002, 4.823521e+003
1.764831e+002, 4.626210e+003
1.765220e+002, 4.678897e+003
1.765610e+002, 4.584947e+003
1.765999e+002, 4.467070e+003
1.766388e+002, 4.613037e+003
1.766777e+002, 4.617069e+003
1.767166e+002, 4.366667e+003
1.767556e+002, 4.522715e+003
1.767945e+002, 4.575134e+003
1.768334e+002, 4.524194e+003
1.768723e+002, 4.394355e+003
1.769113e+002, 4.613844e+003
1.769502e+002, 4.405243e+003
1.769891e+002, 4.595027e+003
1.770280e+002, 4.447312e+003
1.770669e+002, 4.589516e+003
1.771059e+002, 4.504705e+003
1.771448e+002, 4.597043e+003
1.771837e+002, 4.435619e+003
1.772226e+002, 4.669758e+003
1.772615e+002, 4.610349e+003
1.773005e+002, 4.556184e+003
1.773394e+002, 4.508738e+003
1.773783e+002, 4.782930e+003
1.774172e+002, 4.582124e+003
1.774561e+002, 4.498388e+003
1.774951e+002, 4.428763e+003
1.775340e+002, 4.418817e+003
1.775729e+002, 4.574328e+003
1.776118e+002, 4.548925e+003
1.776507e+002, 4.470968e+003
1.776897e+002, 4.459543e+003
1.777286e+002, 4.682258e+003
1.777675e+002, 4.465995e+003
1.778064e+002, 4.532526e+003
1.778454e+002, 4.493951e+003
1.778843e+002, 4.504705e+003
1.779232e+002, 4.557662e+003
1.779621e+002, 4.488576e+003
1.780010e+002, 4.362904e+003
1.780399e+002, 4.578495e+003
1.780789e+002, 4.522446e+003
1.781178e+002, 4.364383e+003
1.781567e+002, 4.463306e+003
1.781956e+002, 4.358737e+003
1.782346e+002, 4.226614e+003
1.782735e+002, 4.532392e+003
1.783124e+002, 4.401344e+003
1.783513e+002, 4.418011e+003
1.783902e+002, 4.391129e+003
1.784292e+002, 4.609946e+003
1.784681e+002, 4.416532e+003
1.785070e+002, 4.533333e+003
1.785459e+002, 4.245431e+003
1.785848e+002, 4.402554e+003
1.786238e+002, 4.603763e+003
1.786627e+002, 4.476748e+003
1.787016e+002, 4.421505e+003
1.787405e+002, 4.550806e+003
1.787794e+002, 4.450270e+003
1.788184e+002, 4.430511e+003
1.788573e+002, 4.385888e+003
1.788962e+002, 4.554436e+003
1.789351e+002, 4.338307e+003
1.789740e+002, 4.370162e+003
1.790130e+002, 4.440053e+003
1.790519e+002, 4.311291e+003
1.790908e+002, 4.472178e+003
1.791297e+002, 4.538576e+003
1.791686e+002, 4.264517e+003
1.792076e+002, 4.551344e+003
1.792465e+002, 4.604301e+003
1.792854e+002, 4.362634e+003
1.793243e+002, 4.351210e+003
1.793633e+002, 4.354973e+003
1.794022e+002, 4.096909e+003
1.794411e+002, 4.427555e+003
1.794800e+002, 4.220430e+003
1.795189e+002, 4.050538e+003
1.795579e+002, 4.079973e+003
1.795968e+002, 4.452823e+003
1.796357e+002, 4.275134e+003
1.796746e+002, 4.400941e+003
1.797135e+002, 4.322850e+003
1.797525e+002, 4.139113e+003
1.797914e+002, 4.035350e+003
1.798303e+002, 4.397715e+003
1.798692e+002, 4.264785e+003
1.799081e+002, 4.391264e+003
1.799471e+002, 4.167876e+003
1.799860e+002, 4.295430e+003
1.800249e+002, 4.330511e+003
1.800638e+002, 4.418683e+003
1.801027e+002, 4.452689e+003
1.801417e+002, 4.403630e+003
1.801806e+002, 4.415726e+003
1.802195e+002, 4.477554e+003
1.802584e+002, 4.303495e+003
1.802973e+002, 4.146237e+003
1.803363e+002, 4.258468e+003
1.803752e+002, 4.436424e+003
1.804141e+002, 4.348388e+003
1.804530e+002, 4.322312e+003
1.804919e+002, 4.255242e+003
1.805309e+002, 4.246103e+003
1.805698e+002, 4.194354e+003
1.806087e+002, 4.287500e+003
1.806476e+002, 4.327957e+003
1.806866e+002, 4.273119e+003
1.807255e+002, 4.311962e+003
1.807644e+002, 4.223924e+003
1.808033e+002, 4.409140e+003
1.808422e+002, 4.735081e+003
1.808811e+002, 4.455242e+003
1.809201e+002, 4.317070e+003
1.809590e+002, 4.434678e+003
1.809979e+002, 4.457124e+003
1.810368e+002, 4.230914e+003
1.810758e+002, 4.231451e+003
1.811147e+002, 4.243817e+003
1.811536e+002, 4.260215e+003
1.811925e+002, 4.211560e+003
1.812314e+002, 4.278495e+003
1.812704e+002, 4.328226e+003
1.813093e+002, 4.283064e+003
1.813482e+002, 4.232125e+003
1.813871e+002, 4.123388e+003
1.814260e+002, 4.480376e+003
1.814650e+002, 4.236560e+003
1.815039e+002, 4.164113e+003
1.815428e+002, 4.022715e+003
1.815817e+002, 4.217069e+003
1.816207e+002, 4.136963e+003
1.816596e+002, 4.316667e+003
1.816985e+002, 4.018683e+003
1.817374e+002, 4.111693e+003
1.817763e+002, 4.221102e+003
1.818152e+002, 4.260215e+003
1.818542e+002, 4.267205e+003
1.818931e+002, 4.334812e+003
1.819320e+002, 4.301075e+003
1.819709e+002, 4.059006e+003
1.820099e+002, 4.117608e+003
1.820488e+002, 4.179301e+003
1.820877e+002, 4.152554e+003
1.821266e+002, 4.204571e+003
1.821655e+002, 4.141532e+003
1.822045e+002, 4.145565e+003
1.822434e+002, 4.055780e+003
1.822823e+002, 4.276746e+003
1.823212e+002, 4.101210e+003
1.823601e+002, 4.043146e+003
1.823991e+002, 4.170833e+003
1.824380e+002, 4.153092e+003
1.824769e+002, 4.275537e+003
1.825158e+002, 4.047312e+003
1.825547e+002, 4.202688e+003
1.825937e+002, 4.193548e+003
1.826326e+002, 4.306183e+003
1.826715e+002, 4.086559e+003
1.827104e+002, 4.387097e+003
1.827493e+002, 4.372313e+003
1.827883e+002, 4.266398e+003
1.828272e+002, 4.466667e+003
1.828661e+002, 4.207124e+003
1.829050e+002, 3.961560e+003
1.829439e+002, 4.242742e+003
1.829829e+002, 4.214382e+003
1.830218e+002, 4.070700e+003
1.830607e+002, 3.720431e+003
1.830996e+002, 4.129032e+003
1.831385e+002, 3.881452e+003
1.831775e+002, 3.733333e+003
1.832164e+002, 3.871505e+003
1.832553e+002, 3.963979e+003
1.832942e+002, 3.983199e+003
1.833331e+002, 3.852823e+003
1.833721e+002, 3.694221e+003
1.834110e+002, 3.996506e+003
1.834499e+002, 3.687501e+003
1.834888e+002, 3.601882e+003
1.835278e+002, 3.825538e+003
1.835667e+002, 4.008871e+003
1.836056e+002, 3.788038e+003
1.836445e+002, 3.634274e+003
1.836834e+002, 3.943952e+003
1.837224e+002, 3.950135e+003
1.837613e+002, 3.997716e+003
1.838002e+002, 3.825135e+003
1.838391e+002, 3.807393e+003
1.838780e+002, 3.888710e+003
1.839170e+002, 3.704167e+003
1.839559e+002, 3.760349e+003
1.839948e+002, 3.996909e+003
1.840337e+002, 3.952419e+003
1.840726e+002, 3.726479e+003
1.841116e+002, 3.750404e+003
1.841505e+002, 3.883737e+003
1.841894e+002, 4.010619e+003
1.842283e+002, 4.025403e+003
1.842672e+002, 3.843280e+003
1.843062e+002, 3.844893e+003
1.843451e+002, 4.017876e+003
1.843840e+002, 4.062365e+003
1.844229e+002, 3.832393e+003
1.844619e+002, 4.137366e+003
1.845008e+002, 3.872581e+003
1.845397e+002, 4.020699e+003
1.845786e+002, 3.975941e+003
1.846175e+002, 3.905914e+003
1.846564e+002, 3.892742e+003
1.846954e+002, 4.146909e+003
1.847343e+002, 3.898790e+003
1.847732e+002, 4.005376e+003
1.848121e+002, 3.097178e+003
1.848511e+002, 3.764247e+003
1.848900e+002, 3.860484e+003
1.849289e+002, 3.969490e+003
1.849678e+002, 4.013172e+003
1.850067e+002, 4.113979e+003
1.850457e+002, 3.835215e+003
1.850846e+002, 3.947984e+003
1.851235e+002, 3.876210e+003
1.851624e+002, 4.075941e+003
1.852013e+002, 3.817608e+003
1.852403e+002, 4.004301e+003
1.852792e+002, 3.967473e+003
1.853181e+002, 4.055376e+003
1.853570e+002, 3.719624e+003
1.853960e+002, 3.815726e+003
1.854349e+002, 3.956183e+003
1.854738e+002, 3.975672e+003
1.855127e+002, 3.653361e+003
1.855516e+002, 3.912500e+003
1.855905e+002, 4.009947e+003
1.856295e+002, 4.121909e+003
1.856684e+002, 3.847043e+003
1.857073e+002, 3.896774e+003
1.857462e+002, 3.860618e+003
1.857852e+002, 4.120699e+003
1.858241e+002, 3.609140e+003
1.858630e+002, 3.670027e+003
1.859019e+002, 3.968951e+003
1.859408e+002, 3.847850e+003
1.859798e+002, 3.965323e+003
1.860187e+002, 3.879705e+003
1.860576e+002, 3.913575e+003
1.860965e+002, 3.967742e+003
1.861354e+002, 3.721640e+003
1.861744e+002, 3.691936e+003
1.862133e+002, 4.006451e+003
1.862522e+002, 3.819625e+003
1.862911e+002, 3.710215e+003
1.863300e+002, 3.781048e+003
1.863690e+002, 4.006183e+003
1.864079e+002, 4.005780e+003
1.864468e+002, 3.907930e+003
1.864857e+002, 3.750941e+003
1.865246e+002, 3.620565e+003
1.865636e+002, 3.737500e+003
1.866025e+002, 3.832796e+003
1.866414e+002, 3.697581e+003
1.866803e+002, 3.790725e+003
1.867192e+002, 3.636694e+003
1.867582e+002, 3.911963e+003
1.867971e+002, 3.913441e+003
1.868360e+002, 3.814113e+003
1.868749e+002, 3.733065e+003
1.869138e+002, 3.845161e+003
1.869528e+002, 3.829704e+003
1.869917e+002, 3.771237e+003
1.870306e+002, 3.733199e+003
1.870695e+002, 3.660887e+003
1.871084e+002, 3.628764e+003
1.871474e+002, 3.726210e+003
1.871863e+002, 3.854704e+003
1.872252e+002, 3.744221e+003
1.872641e+002, 3.797177e+003
1.873031e+002, 3.921237e+003
1.873420e+002, 3.731586e+003
1.873809e+002, 3.900269e+003
1.874198e+002, 3.787903e+003
1.874587e+002, 3.837769e+003
1.874977e+002, 3.894758e+003
1.875366e+002, 3.879301e+003
1.875755e+002, 3.536962e+003
1.876144e+002, 3.800000e+003
1.876533e+002, 3.655780e+003
1.876923e+002, 3.722984e+003
1.877312e+002, 3.848253e+003
1.877701e+002, 3.967876e+003
1.878090e+002, 3.822446e+003
1.878479e+002, 3.813844e+003
1.878869e+002, 3.722043e+003
1.879258e+002, 3.631049e+003
1.879647e+002, 3.799731e+003
1.880036e+002, 3.873656e+003
1.880425e+002, 3.560350e+003
1.880815e+002, 3.771909e+003
1.881204e+002, 3.777285e+003
1.881593e+002, 3.729705e+003
1.881982e+002, 3.917742e+003
1.882372e+002, 3.866129e+003
1.882761e+002, 3.862231e+003
1.883150e+002, 3.864919e+003
1.883539e+002, 3.702285e+003
1.883928e+002, 3.677420e+003
1.884317e+002, 3.830511e+003
1.884707e+002, 3.885081e+003
1.885096e+002, 3.796640e+003
1.885485e+002, 3.715054e+003
1.885874e+002, 3.834812e+003
1.886264e+002, 3.662501e+003
1.886653e+002, 3.852688e+003
1.887042e+002, 3.871103e+003
1.887431e+002, 3.813979e+003
1.887820e+002, 3.777823e+003
1.888210e+002, 3.873253e+003
1.888599e+002, 3.736156e+003
1.888988e+002, 3.465323e+003
1.889377e+002, 3.529839e+003
1.889766e+002, 3.658468e+003
1.890156e+002, 3.744893e+003
1.890545e+002, 3.681586e+003
1.890934e+002, 3.626882e+003
1.891323e+002, 3.605780e+003
1.891712e+002, 3.838844e+003
1.892102e+002, 3.596506e+003
1.892491e+002, 3.663307e+003
1.892880e+002, 3.672447e+003
1.893269e+002, 3.666801e+003
1.893658e+002, 3.418011e+003
1.894048e+002, 3.597312e+003
1.894437e+002, 3.697581e+003
1.894826e+002, 3.888979e+003
1.895215e+002, 3.639382e+003
1.895605e+002, 3.614248e+003
1.895994e+002, 3.697581e+003
1.896383e+002, 3.860080e+003
1.896772e+002, 3.444490e+003
1.897161e+002, 3.621371e+003
1.897551e+002, 3.681721e+003
1.897940e+002, 3.631452e+003
1.898329e+002, 3.504301e+003
1.898718e+002, 3.624193e+003
1.899107e+002, 3.704704e+003
1.899496e+002, 3.563441e+003
1.899886e+002, 3.595161e+003
1.900275e+002, 3.757527e+003
1.900664e+002, 3.758199e+003
1.901053e+002, 3.746371e+003
1.901443e+002, 3.421102e+003
1.901832e+002, 3.697177e+003
1.902221e+002, 3.859140e+003
1.902610e+002, 3.634274e+003
1.902999e+002, 3.457393e+003
1.903389e+002, 3.707527e+003
1.903778e+002, 3.637500e+003
1.904167e+002, 3.645430e+003
1.904556e+002, 3.335888e+003
1.904945e+002, 3.411022e+003
1.905335e+002, 3.766667e+003
1.905724e+002, 3.631586e+003
1.906113e+002, 3.365323e+003
1.906502e+002, 3.504436e+003
1.906891e+002, 3.596640e+003
1.907281e+002, 3.608871e+003
1.907670e+002, 3.395833e+003
1.908059e+002, 3.518280e+003
1.908448e+002, 3.426748e+003
1.908837e+002, 3.597043e+003
1.909227e+002, 3.465592e+003
1.909616e+002, 3.502016e+003
1.910005e+002, 3.775941e+003
1.910394e+002, 3.854032e+003
1.910784e+002, 3.471372e+003
1.911173e+002, 3.548387e+003
1.911562e+002, 3.449463e+003
1.911951e+002, 3.756183e+003
1.912340e+002, 3.568280e+003
1.912729e+002, 3.620161e+003
1.913119e+002, 3.501479e+003
1.913508e+002, 3.992607e+003
1.913897e+002, 3.354167e+003
1.914286e+002, 3.444624e+003
1.914676e+002, 3.439516e+003
1.915065e+002, 3.606183e+003
1.915454e+002, 3.329032e+003
1.915843e+002, 3.504435e+003
1.916232e+002, 3.623656e+003
1.916622e+002, 3.647312e+003
1.917011e+002, 3.558468e+003
1.917400e+002, 3.697447e+003
1.917789e+002, 3.602958e+003
1.918178e+002, 3.682392e+003
1.918568e+002, 3.410350e+003
1.918957e+002, 3.475000e+003
1.919346e+002, 3.707796e+003
1.919735e+002, 3.408333e+003
1.920125e+002, 3.532392e+003
1.920514e+002, 3.374060e+003
1.920903e+002, 3.385484e+003
1.921292e+002, 3.421371e+003
1.921681e+002, 3.561962e+003
1.922070e+002, 3.397716e+003
1.922460e+002, 3.592204e+003
1.922849e+002, 3.486559e+003
1.923238e+002, 3.436156e+003
1.923627e+002, 3.380108e+003
1.924017e+002, 3.530243e+003
1.924406e+002, 3.547581e+003
1.924795e+002, 3.414919e+003
1.925184e+002, 3.375672e+003
1.925573e+002, 3.449731e+003
1.925963e+002, 3.479570e+003
1.926352e+002, 3.368683e+003
1.926741e+002, 3.308199e+003
1.927130e+002, 3.261291e+003
1.927519e+002, 3.421774e+003
1.927909e+002, 3.401344e+003
1.928298e+002, 3.230242e+003
1.928687e+002, 3.469758e+003
1.929076e+002, 3.370833e+003
1.929465e+002, 3.314516e+003
1.929855e+002, 3.361693e+003
1.930244e+002, 3.570967e+003
1.930633e+002, 3.326882e+003
1.931022e+002, 3.390726e+003
1.931411e+002, 3.247447e+003
1.931801e+002, 3.594221e+003
1.932190e+002, 3.433199e+003
1.932579e+002, 3.385350e+003
1.932968e+002, 3.493952e+003
1.933358e+002, 3.532796e+003
1.933747e+002, 3.274597e+003
1.934136e+002, 3.424732e+003
1.934525e+002, 3.291264e+003
1.934914e+002, 3.384946e+003
1.935303e+002, 3.226344e+003
1.935693e+002, 3.379436e+003
1.936082e+002, 3.614785e+003
1.936471e+002, 3.323522e+003
1.936860e+002, 3.284812e+003
1.937249e+002, 3.498253e+003
1.937639e+002, 3.267608e+003
1.938028e+002, 3.393280e+003
1.938417e+002, 3.249866e+003
1.938806e+002, 3.314248e+003
1.939196e+002, 3.406855e+003
1.939585e+002, 3.335484e+003
1.939974e+002, 3.337366e+003
1.940363e+002, 3.265995e+003
1.940752e+002, 3.399462e+003
1.941142e+002, 3.505108e+003
1.941531e+002, 3.271237e+003
1.941920e+002, 3.461963e+003
1.942309e+002, 3.315592e+003
1.942698e+002, 3.406586e+003
1.943088e+002, 3.447446e+003
1.943477e+002, 3.286425e+003
1.943866e+002, 3.457393e+003
1.944255e+002, 3.385887e+003
1.944644e+002, 3.465860e+003
1.945034e+002, 3.480108e+003
1.945423e+002, 3.490054e+003
1.945812e+002, 3.348791e+003
1.946201e+002, 3.429301e+003
1.946590e+002, 3.277151e+003
1.946980e+002, 3.169893e+003
1.947369e+002, 3.297312e+003
1.947758e+002, 3.330108e+003
1.948147e+002, 3.397446e+003
1.948537e+002, 3.236559e+003
1.948926e+002, 3.229974e+003
1.949315e+002, 3.480376e+003
1.949704e+002, 3.381855e+003
1.950093e+002, 3.118548e+003
1.950482e+002, 3.278495e+003
1.950872e+002, 3.395161e+003
1.951261e+002, 3.337231e+003
1.951650e+002, 3.434409e+003
1.952039e+002, 3.404570e+003
1.952429e+002, 3.320027e+003
1.952818e+002, 3.318549e+003
1.953207e+002, 3.430914e+003
1.953596e+002, 3.174462e+003
1.953985e+002, 3.423253e+003
1.954375e+002, 3.164114e+003
1.954764e+002, 3.409408e+003
1.955153e+002, 3.281318e+003
1.955542e+002, 3.481048e+003
1.955931e+002, 3.257931e+003
1.956321e+002, 3.299731e+003
1.956710e+002, 3.358602e+003
1.957099e+002, 3.321371e+003
1.957488e+002, 3.201210e+003
1.957878e+002, 3.499462e+003
1.958267e+002, 3.314919e+003
1.958656e+002, 3.354032e+003
1.959045e+002, 3.129167e+003
1.959434e+002, 3.280107e+003
1.959823e+002, 3.291398e+003
1.960213e+002, 3.509409e+003
1.960602e+002, 3.531721e+003
1.960991e+002, 3.341264e+003
1.961380e+002, 3.375538e+003
1.961770e+002, 3.385215e+003
1.962159e+002, 3.281183e+003
1.962548e+002, 3.372177e+003
1.962937e+002, 3.425134e+003
1.963326e+002, 3.320699e+003
1.963716e+002, 3.378226e+003
1.964105e+002, 3.331586e+003
1.964494e+002, 3.447715e+003
1.964883e+002, 3.332796e+003
1.965272e+002, 3.274731e+003
1.965662e+002, 3.287097e+003
1.966051e+002, 3.394086e+003
1.966440e+002, 3.327150e+003
1.966829e+002, 3.173791e+003
1.967218e+002, 3.392339e+003
1.967608e+002, 3.450135e+003
1.967997e+002, 3.206183e+003
1.968386e+002, 3.351479e+003
1.968775e+002, 3.454570e+003
1.969164e+002, 3.472984e+003
1.969554e+002, 3.457661e+003
1.969943e+002, 3.139382e+003
1.970332e+002, 3.331855e+003
1.970721e+002, 3.377419e+003
1.971111e+002, 3.243952e+003
1.971500e+002, 3.157796e+003
1.971889e+002, 3.385350e+003
1.972278e+002, 3.484677e+003
1.972667e+002, 3.331855e+003
1.973056e+002, 3.165054e+003
1.973446e+002, 3.195564e+003
1.973835e+002, 3.365053e+003
1.974224e+002, 3.498656e+003
1.974613e+002, 3.270565e+003
1.975002e+002, 3.097043e+003
1.975392e+002, 3.215726e+003
1.975781e+002, 3.420161e+003
1.976170e+002, 3.258603e+003
1.976559e+002, 3.200404e+003
1.976949e+002, 3.462366e+003
1.977338e+002, 3.486693e+003
1.977727e+002, 3.380107e+003
1.978116e+002, 3.154301e+003
1.978505e+002, 3.183871e+003
1.978895e+002, 3.381317e+003
1.979284e+002, 3.343817e+003
1.979673e+002, 3.107124e+003
1.980062e+002, 3.435484e+003
1.980451e+002, 3.551882e+003
1.980841e+002, 3.255511e+003
1.981230e+002, 3.185484e+003
1.981619e+002, 3.321774e+003
1.982008e+002, 3.330914e+003
1.982397e+002, 3.629301e+003
1.982787e+002, 3.085216e+003
1.983176e+002, 3.034946e+003
1.983565e+002, 3.216129e+003
1.983954e+002, 3.263979e+003
1.984343e+002, 3.060081e+003
1.984733e+002, 3.420699e+003
1.985122e+002, 3.315995e+003
1.985511e+002, 3.443952e+003
1.985900e+002, 3.433602e+003
1.986290e+002, 3.174462e+003
1.986679e+002, 3.235887e+003
1.987068e+002, 3.410350e+003
1.987457e+002, 3.265994e+003
1.987846e+002, 3.091398e+003
1.988235e+002, 3.405780e+003
1.988625e+002, 3.394758e+003
1.989014e+002, 3.035081e+003
1.989403e+002, 3.158468e+003
1.989792e+002, 3.185618e+003
1.990182e+002, 3.162231e+003
1.990571e+002, 3.378763e+003
1.990960e+002, 3.237365e+003
1.991349e+002, 3.139382e+003
1.991738e+002, 3.208468e+003
1.992128e+002, 3.193145e+003
1.992517e+002, 3.171506e+003
1.992906e+002, 3.334677e+003
1.993295e+002, 3.292607e+003
1.993684e+002, 3.146909e+003
1.994074e+002, 3.302688e+003
1.994463e+002, 3.343145e+003
1.994852e+002, 3.173118e+003
1.995241e+002, 3.346640e+003
1.995630e+002, 3.444489e+003
1.996020e+002, 3.246640e+003
1.996409e+002, 3.413978e+003
1.996798e+002, 3.216802e+003
1.997187e+002, 3.145161e+003
1.997576e+002, 3.217070e+003
1.997966e+002, 3.187769e+003
1.998355e+002, 3.169490e+003
1.998744e+002, 3.347581e+003
1.999133e+002, 3.390860e+003
1.999523e+002, 3.302419e+003
1.999912e+002, 3.344624e+003
2.000301e+002, 3.312365e+003
2.000690e+002, 3.206855e+003
2.001079e+002, 3.454973e+003
2.001469e+002, 3.406855e+003
2.001858e+002, 3.278092e+003
2.002247e+002, 3.273656e+003
2.002636e+002, 3.394086e+003
2.003025e+002, 3.177554e+003
2.003415e+002, 3.585081e+003
2.003804e+002, 3.457259e+003
2.004193e+002, 3.500672e+003
2.004582e+002, 3.300941e+003
2.004971e+002, 3.364919e+003
2.005361e+002, 3.609677e+003
2.005750e+002, 3.550403e+003
2.006139e+002, 3.493145e+003
2.006528e+002, 3.248656e+003
2.006917e+002, 3.318952e+003
2.007307e+002, 3.331049e+003
2.007696e+002, 3.375269e+003
2.008085e+002, 3.464382e+003
2.008474e+002, 3.381989e+003
2.008864e+002, 3.292473e+003
2.009253e+002, 3.312366e+003
2.009642e+002, 3.277554e+003
2.010031e+002, 3.293548e+003
2.010420e+002, 3.439785e+003
2.010809e+002, 3.535081e+003
2.011199e+002, 3.384409e+003
2.011588e+002, 3.335215e+003
2.011977e+002, 3.316667e+003
2.012366e+002, 3.269624e+003
2.012755e+002, 3.311156e+003
2.013145e+002, 3.412500e+003
2.013534e+002, 3.261560e+003
2.013923e+002, 3.451613e+003
2.014312e+002, 3.276882e+003
2.014702e+002, 3.242070e+003
2.015091e+002, 3.374462e+003
2.015480e+002, 3.470564e+003
2.015869e+002, 3.264651e+003
2.016258e+002, 3.544624e+003
2.016648e+002, 3.708333e+003
2.017037e+002, 3.377554e+003
2.017426e+002, 3.376748e+003
2.017815e+002, 3.452151e+003
2.018204e+002, 3.318011e+003
2.018594e+002, 3.250000e+003
2.018983e+002, 3.282930e+003
2.019372e+002, 3.263844e+003
2.019761e+002, 3.211425e+003
2.020150e+002, 3.296505e+003
2.020540e+002, 3.206855e+003
2.020929e+002, 3.316532e+003
2.021318e+002, 3.279839e+003
2.021707e+002, 3.517607e+003
2.022096e+002, 3.486828e+003
2.022486e+002, 3.308065e+003
2.022875e+002, 3.282124e+003
2.023264e+002, 3.337634e+003
2.023653e+002, 3.269624e+003
2.024043e+002, 3.284812e+003
2.024432e+002, 3.216129e+003
2.024821e+002, 3.144758e+003
2.025210e+002, 3.150806e+003
2.025599e+002, 3.102016e+003
2.025988e+002, 3.305242e+003
2.026378e+002, 3.153360e+003
2.026767e+002, 3.305645e+003
2.027156e+002, 3.202957e+003
2.027545e+002, 3.116801e+003
2.027935e+002, 3.372312e+003
2.028324e+002, 3.351344e+003
2.028713e+002, 2.980645e+003
2.029102e+002, 2.956183e+003
2.029491e+002, 3.251748e+003
2.029881e+002, 3.261559e+003
2.030270e+002, 3.308199e+003
2.030659e+002, 2.836156e+003
2.031048e+002, 2.953360e+003
2.031437e+002, 3.099597e+003
2.031827e+002, 3.402823e+003
2.032216e+002, 3.117607e+003
2.032605e+002, 3.051210e+003
2.032994e+002, 3.249059e+003
2.033383e+002, 3.121371e+003
2.033773e+002, 3.360887e+003
2.034162e+002, 3.153764e+003
2.034551e+002, 3.156183e+003
2.034940e+002, 3.400000e+003
2.035329e+002, 3.174194e+003
2.035719e+002, 2.865323e+003
2.036108e+002, 3.076210e+003
2.036497e+002, 2.944893e+003
2.036886e+002, 3.037903e+003
2.037275e+002, 2.915323e+003
2.037665e+002, 3.125941e+003
2.038054e+002, 2.842742e+003
2.038443e+002, 3.092070e+003
2.038832e+002, 2.912366e+003
2.039221e+002, 3.045699e+003
2.039611e+002, 2.952554e+003
2.040000e+002, 3.066801e+003
2.040389e+002, 2.981720e+003
2.040778e+002, 3.097177e+003
2.041168e+002, 3.011694e+003
2.041557e+002, 2.909543e+003
2.041946e+002, 3.029167e+003
2.042335e+002, 3.093280e+003
2.042724e+002, 2.865995e+003
2.043114e+002, 3.147043e+003
2.043503e+002, 3.013306e+003
2.043892e+002, 2.849194e+003
2.044281e+002, 3.000403e+003
2.044670e+002, 3.299194e+003
2.045060e+002, 3.099059e+003
2.045449e+002, 2.969893e+003
2.045838e+002, 2.894355e+003
2.046227e+002, 3.109140e+003
2.046617e+002, 2.991801e+003
2.047006e+002, 2.789785e+003
2.047395e+002, 2.858199e+003
2.047784e+002, 3.035887e+003
2.048173e+002, 2.996640e+003
2.048562e+002, 3.063575e+003
2.048952e+002, 2.869624e+003
2.049341e+002, 2.776076e+003
2.049730e+002, 3.215323e+003
2.050119e+002, 2.914919e+003
2.050508e+002, 2.778898e+003
2.050898e+002, 2.839919e+003
2.051287e+002, 2.933199e+003
2.051676e+002, 2.951344e+003
2.052065e+002, 3.061962e+003
2.052455e+002, 3.008064e+003
2.052844e+002, 2.955914e+003
2.053233e+002, 2.662903e+003
2.053622e+002, 2.834274e+003
2.054011e+002, 3.103763e+003
2.054401e+002, 2.836694e+003
2.054790e+002, 2.916129e+003
2.055179e+002, 2.901075e+003
2.055568e+002, 3.019624e+003
2.055957e+002, 2.937769e+003
2.056347e+002, 2.777419e+003
2.056736e+002, 2.738038e+003
2.057125e+002, 2.887500e+003
2.057514e+002, 2.915188e+003
2.057903e+002, 2.979301e+003
2.058293e+002, 2.920161e+003
2.058682e+002, 3.004973e+003
2.059071e+002, 2.880645e+003
2.059460e+002, 2.717339e+003
2.059849e+002, 2.775538e+003
2.060239e+002, 2.773118e+003
2.060628e+002, 2.633065e+003
2.061017e+002, 2.711022e+003
2.061406e+002, 2.985753e+003
2.061796e+002, 3.004167e+003
2.062185e+002, 3.030108e+003
2.062574e+002, 2.979301e+003
2.062963e+002, 3.008468e+003
2.063352e+002, 2.719086e+003
2.063741e+002, 2.968414e+003
2.064131e+002, 2.832661e+003
2.064520e+002, 2.849194e+003
2.064909e+002, 2.920296e+003
2.065298e+002, 2.962097e+003
2.065688e+002, 2.923790e+003
2.066077e+002, 2.832527e+003
2.066466e+002, 2.892876e+003
2.066855e+002, 2.862097e+003
2.067244e+002, 2.744086e+003
2.067634e+002, 2.666936e+003
2.068023e+002, 2.782258e+003
2.068412e+002, 2.774059e+003
2.068801e+002, 2.975806e+003
2.069190e+002, 2.921640e+003
2.069580e+002, 2.746237e+003
2.069969e+002, 2.805376e+003
2.070358e+002, 2.800538e+003
2.070747e+002, 2.578898e+003
2.071136e+002, 2.703495e+003
2.071526e+002, 2.789785e+003
2.071915e+002, 2.832258e+003
2.072304e+002, 2.745565e+003
2.072693e+002, 2.860350e+003
2.073082e+002, 2.677688e+003
2.073472e+002, 2.633468e+003
2.073861e+002, 2.643818e+003
2.074250e+002, 2.794355e+003
2.074639e+002, 2.657124e+003
2.075028e+002, 2.786559e+003
2.075418e+002, 2.935753e+003
2.075807e+002, 2.906586e+003
2.076196e+002, 3.052419e+003
2.076585e+002, 2.769355e+003
2.076974e+002, 2.980645e+003
2.077364e+002, 2.833333e+003
2.077753e+002, 2.640054e+003
2.078142e+002, 2.662635e+003
2.078531e+002, 2.806586e+003
2.078921e+002, 2.892742e+003
2.079310e+002, 2.922850e+003
2.079699e+002, 2.752016e+003
2.080088e+002, 2.542070e+003
2.080477e+002, 2.806586e+003
2.080867e+002, 2.719893e+003
2.081256e+002, 2.615054e+003
2.081645e+002, 2.655914e+003
2.082034e+002, 2.756183e+003
2.082423e+002, 2.690726e+003
2.082813e+002, 2.624059e+003
2.083202e+002, 2.595430e+003
2.083591e+002, 2.554570e+003
2.083980e+002, 2.649462e+003
2.084370e+002, 2.680645e+003
2.084759e+002, 2.556452e+003
2.085148e+002, 2.671640e+003
2.085537e+002, 2.586291e+003
2.085926e+002, 2.665054e+003
2.086315e+002, 2.608468e+003
2.086705e+002, 2.711559e+003
2.087094e+002, 2.807527e+003
2.087483e+002, 2.750807e+003
2.087872e+002, 2.808333e+003
2.088261e+002, 2.641398e+003
2.088651e+002, 2.690457e+003
2.089040e+002, 3.064113e+003
2.089429e+002, 2.463844e+003
2.089818e+002, 2.620968e+003
2.090208e+002, 2.657661e+003
2.090597e+002, 2.673253e+003
2.090986e+002, 2.715457e+003
2.091375e+002, 2.800538e+003
2.091764e+002, 2.651210e+003
2.092154e+002, 2.585753e+003
2.092543e+002, 2.903898e+003
2.092932e+002, 2.563575e+003
2.093321e+002, 2.593549e+003
2.093710e+002, 2.506586e+003
2.094100e+002, 2.527823e+003
2.094489e+002, 2.743280e+003
2.094878e+002, 2.706720e+003
2.095267e+002, 2.626478e+003
2.095656e+002, 2.550941e+003
2.096046e+002, 2.741935e+003
2.096435e+002, 2.531318e+003
2.096824e+002, 2.476479e+003
2.097213e+002, 2.603898e+003
2.097602e+002, 2.539516e+003
2.097992e+002, 2.662634e+003
2.098381e+002, 2.591398e+003
2.098770e+002, 2.391667e+003
2.099159e+002, 2.617339e+003
2.099548e+002, 2.745296e+003
2.099938e+002, 2.416936e+003
2.100327e+002, 2.459946e+003
2.100716e+002, 2.548656e+003
2.101105e+002, 2.571775e+003
2.101494e+002, 2.664382e+003
2.101884e+002, 2.597849e+003
2.102273e+002, 2.504436e+003
2.102662e+002, 2.673924e+003
2.103051e+002, 2.592070e+003
2.103441e+002, 2.448791e+003
2.103830e+002, 2.589785e+003
2.104219e+002, 2.594220e+003
2.104608e+002, 2.462904e+003
2.104997e+002, 2.616129e+003
2.105387e+002, 2.607258e+003
2.105776e+002, 2.487770e+003
2.106165e+002, 2.704973e+003
2.106554e+002, 2.682258e+003
2.106943e+002, 2.428092e+003
2.107333e+002, 2.660215e+003
2.107722e+002, 2.567742e+003
2.108111e+002, 2.643817e+003
2.108500e+002, 2.551209e+003
2.108889e+002, 2.597447e+003
2.109279e+002, 2.610081e+003
2.109668e+002, 2.697581e+003
2.110057e+002, 2.777554e+003
2.110446e+002, 2.615861e+003
2.110835e+002, 2.558602e+003
2.111225e+002, 2.534274e+003
2.111614e+002, 2.571371e+003
2.112003e+002, 2.667339e+003
2.112392e+002, 2.676209e+003
2.112781e+002, 2.549328e+003
2.113171e+002, 2.462635e+003
2.113560e+002, 2.638979e+003
2.113949e+002, 2.670296e+003
2.114338e+002, 2.615457e+003
2.114727e+002, 2.413172e+003
2.115117e+002, 2.709408e+003
2.115506e+002, 2.765860e+003
2.115895e+002, 2.737231e+003
2.116284e+002, 2.634946e+003
2.116674e+002, 2.747446e+003
2.117063e+002, 2.610484e+003
2.117452e+002, 2.358603e+003
2.117841e+002, 2.515995e+003
2.118230e+002, 2.718683e+003
2.118620e+002, 2.471506e+003
2.119009e+002, 2.747446e+003
2.119398e+002, 2.535350e+003
2.119787e+002, 2.425135e+003
2.120176e+002, 2.771908e+003
2.120565e+002, 2.725807e+003
2.120955e+002, 2.592742e+003
2.121344e+002, 2.524194e+003
2.121733e+002, 2.695564e+003
2.122122e+002, 2.554705e+003
2.122512e+002, 2.613306e+003
2.122901e+002, 2.740457e+003
2.123290e+002, 2.518818e+003
2.123679e+002, 2.635484e+003
2.124068e+002, 2.563709e+003
2.124458e+002, 2.429705e+003
2.124847e+002, 2.761291e+003
2.125236e+002, 2.704032e+003
2.125625e+002, 2.773656e+003
2.126014e+002, 2.751747e+003
2.126404e+002, 2.636828e+003
2.126793e+002, 2.573791e+003
2.127182e+002, 2.622850e+003
2.127571e+002, 2.562097e+003
2.127961e+002, 2.436560e+003
2.128350e+002, 2.513172e+003
2.128739e+002, 2.633467e+003
2.129128e+002, 2.471372e+003
2.129517e+002, 2.496909e+003
2.129906e+002, 2.477957e+003
2.130296e+002, 2.422850e+003
2.130685e+002, 2.523118e+003
2.131074e+002, 2.461828e+003
2.131463e+002, 2.428495e+003
2.131853e+002, 2.622312e+003
2.132242e+002, 2.520027e+003
2.132631e+002, 2.492204e+003
2.133020e+002, 2.519355e+003
2.133409e+002, 2.752016e+003
2.133799e+002, 2.427823e+003
2.134188e+002, 2.468414e+003
2.134577e+002, 2.533065e+003
2.134966e+002, 2.543012e+003
2.135355e+002, 3.202150e+003
2.135745e+002, 2.641264e+003
2.136134e+002, 2.422178e+003
2.136523e+002, 2.544624e+003
2.136912e+002, 2.493010e+003
2.137301e+002, 2.307258e+003
2.137691e+002, 2.506317e+003
2.138080e+002, 2.630780e+003
2.138469e+002, 2.528897e+003
2.138858e+002, 2.394893e+003
2.139247e+002, 2.400807e+003
2.139637e+002, 2.517473e+003
2.140026e+002, 2.545430e+003
2.140415e+002, 2.388710e+003
2.140804e+002, 2.269893e+003
2.141194e+002, 2.560215e+003
2.141583e+002, 2.574597e+003
2.141972e+002, 2.367742e+003
2.142361e+002, 2.393280e+003
2.142750e+002, 2.627285e+003
2.143139e+002, 2.334274e+003
2.143529e+002, 2.599865e+003
2.143918e+002, 2.506586e+003
2.144307e+002, 2.690995e+003
2.144696e+002, 2.473521e+003
2.145086e+002, 2.341398e+003
2.145475e+002, 2.703764e+003
2.145864e+002, 2.711156e+003
2.146253e+002, 2.444759e+003
2.146642e+002, 2.499731e+003
2.147032e+002, 2.470834e+003
2.147421e+002, 2.506720e+003
2.147810e+002, 2.284812e+003
2.148199e+002, 2.451075e+003
2.148588e+002, 2.425538e+003
2.148978e+002, 2.387769e+003
2.149367e+002, 2.444355e+003
2.149756e+002, 2.664382e+003
2.150145e+002, 2.449731e+003
2.150534e+002, 2.488172e+003
2.150924e+002, 2.627957e+003
2.151313e+002, 2.451748e+003
2.151702e+002, 2.451344e+003
2.152091e+002, 2.529704e+003
2.152480e+002, 2.397984e+003
2.152870e+002, 2.366398e+003
2.153259e+002, 2.551613e+003
2.153648e+002, 2.248119e+003
2.154037e+002, 2.477285e+003
2.154427e+002, 2.375538e+003
2.154816e+002, 2.500538e+003
2.155205e+002, 2.322313e+003
2.155594e+002, 2.455108e+003
2.155983e+002, 2.444759e+003
2.156373e+002, 2.453361e+003
2.156762e+002, 2.477957e+003
2.157151e+002, 2.317205e+003
2.157540e+002, 2.292608e+003
2.157929e+002, 2.528763e+003
2.158318e+002, 2.360888e+003
2.158708e+002, 2.516532e+003
2.159097e+002, 2.616264e+003
2.159486e+002, 2.517339e+003
2.159875e+002, 2.475807e+003
2.160265e+002, 2.389247e+003
2.160654e+002, 2.166802e+003
2.161043e+002, 2.665995e+003
2.161432e+002, 2.438979e+003
2.161821e+002, 2.352957e+003
2.162211e+002, 2.557393e+003
2.162600e+002, 2.561559e+003
2.162989e+002, 2.172984e+003
2.163378e+002, 2.422446e+003
2.163767e+002, 2.371505e+003
2.164157e+002, 2.200270e+003
2.164546e+002, 2.404973e+003
2.164935e+002, 2.502957e+003
2.165324e+002, 2.430914e+003
2.165714e+002, 2.415861e+003
2.166103e+002, 2.377957e+003
2.166492e+002, 2.377285e+003
2.166881e+002, 2.612096e+003
2.167270e+002, 2.342070e+003
2.167659e+002, 2.337635e+003
2.168049e+002, 2.259275e+003
2.168438e+002, 2.215726e+003
2.168827e+002, 2.365726e+003
2.169216e+002, 2.389651e+003
2.169606e+002, 2.373253e+003
2.169995e+002, 2.375135e+003
2.170384e+002, 2.346774e+003
2.170773e+002, 2.390457e+003
2.171162e+002, 2.272715e+003
2.171552e+002, 2.477285e+003
2.171941e+002, 2.407527e+003
2.172330e+002, 2.176479e+003
2.172719e+002, 2.588038e+003
2.173108e+002, 2.385484e+003
2.173498e+002, 2.422715e+003
2.173887e+002, 2.233065e+003
2.174276e+002, 2.404301e+003
2.174665e+002, 2.502151e+003
2.175054e+002, 2.428360e+003
2.175444e+002, 2.273387e+003
2.175833e+002, 2.301344e+003
2.176222e+002, 2.337097e+003
2.176611e+002, 2.075269e+003
2.177000e+002, 2.110484e+003
2.177390e+002, 2.208736e+003
2.177779e+002, 2.375807e+003
2.178168e+002, 2.259812e+003
2.178557e+002, 2.227688e+003
2.178947e+002, 2.266263e+003
2.179336e+002, 2.133737e+003
2.179725e+002, 2.311156e+003
2.180114e+002, 2.257124e+003
2.180503e+002, 2.087904e+003
2.180892e+002, 2.347984e+003
2.181282e+002, 2.369355e+003
2.181671e+002, 2.048253e+003
2.182060e+002, 2.237769e+003
2.182449e+002, 2.429167e+003
2.182839e+002, 2.202150e+003
2.183228e+002, 2.134006e+003
2.183617e+002, 2.374731e+003
2.184006e+002, 2.415995e+003
2.184395e+002, 2.372581e+003
2.184785e+002, 2.243012e+003
2.185174e+002, 2.420027e+003
2.185563e+002, 2.573118e+003
2.185952e+002, 2.296775e+003
2.186341e+002, 1.988442e+003
2.186731e+002, 2.420161e+003
2.187120e+002, 2.621102e+003
2.187509e+002, 2.440053e+003
2.187898e+002, 2.151076e+003
2.188287e+002, 2.381586e+003
2.188677e+002, 2.188173e+003
2.189066e+002, 2.490860e+003
2.189455e+002, 2.312904e+003
2.189844e+002, 2.212231e+003
2.190233e+002, 2.365323e+003
2.190623e+002, 2.260350e+003
2.191012e+002, 2.470699e+003
2.191401e+002, 2.327554e+003
2.191790e+002, 2.209274e+003
2.192180e+002, 2.267070e+003
2.192569e+002, 2.504570e+003
2.192958e+002, 2.453898e+003
2.193347e+002, 2.409543e+003
2.193736e+002, 2.619220e+003
2.194126e+002, 2.438710e+003
2.194515e+002, 2.359274e+003
2.194904e+002, 2.133334e+003
2.195293e+002, 2.399059e+003
2.195682e+002, 2.324463e+003
2.196071e+002, 2.388575e+003
2.196461e+002, 2.188172e+003
2.196850e+002, 2.331721e+003
2.197239e+002, 2.345833e+003
2.197628e+002, 2.352688e+003
2.198018e+002, 2.026210e+003
2.198407e+002, 2.641129e+003
2.198796e+002, 2.401479e+003
2.199185e+002, 2.210753e+003
2.199574e+002, 2.267070e+003
2.199964e+002, 2.341263e+003
2.200353e+002, 2.183737e+003
2.200742e+002, 2.405779e+003
2.201131e+002, 2.184409e+003
2.201520e+002, 2.217070e+003
2.201910e+002, 2.313307e+003
2.202299e+002, 2.476613e+003
2.202688e+002, 2.151882e+003
2.203077e+002, 2.245968e+003
2.203466e+002, 2.291129e+003
2.203856e+002, 2.187769e+003
2.204245e+002, 2.242742e+003
2.204634e+002, 2.207258e+003
2.205023e+002, 2.119758e+003
2.205412e+002, 2.271237e+003
2.205802e+002, 2.312097e+003
2.206191e+002, 2.077420e+003
2.206580e+002, 2.291129e+003
2.206969e+002, 2.365861e+003
2.207359e+002, 2.468548e+003
2.207748e+002, 2.304167e+003
2.208137e+002, 2.216129e+003
2.208526e+002, 2.147446e+003
2.208915e+002, 2.251479e+003
2.209305e+002, 2.324059e+003
2.209694e+002, 2.156855e+003
2.210083e+002, 2.112635e+003
2.210472e+002, 2.221371e+003
2.210861e+002, 2.040995e+003
2.211251e+002, 2.411828e+003
2.211640e+002, 2.137500e+003
2.212029e+002, 2.206049e+003
2.212418e+002, 2.171640e+003
2.212807e+002, 2.171640e+003
2.213197e+002, 2.232661e+003
2.213586e+002, 2.190592e+003
2.213975e+002, 2.123521e+003
2.214364e+002, 2.150672e+003
2.214753e+002, 2.455510e+003
2.215143e+002, 2.141667e+003
2.215532e+002, 2.063172e+003
2.215921e+002, 2.211693e+003
2.216310e+002, 2.189785e+003
2.216700e+002, 2.121909e+003
2.217089e+002, 2.440457e+003
2.217478e+002, 2.239651e+003
2.217867e+002, 2.325000e+003
2.218256e+002, 2.084947e+003
2.218645e+002, 2.112903e+003
2.219035e+002, 2.101882e+003
2.219424e+002, 2.334006e+003
2.219813e+002, 2.179973e+003
2.220202e+002, 2.292473e+003
2.220591e+002, 1.983737e+003
2.220981e+002, 2.270564e+003
2.221370e+002, 2.386962e+003
2.221759e+002, 2.286962e+003
2.222148e+002, 2.161560e+003
2.222538e+002, 2.158737e+003
2.222927e+002, 2.188441e+003
2.223316e+002, 2.398655e+003
2.223705e+002, 1.983603e+003
2.224094e+002, 2.051210e+003
2.224484e+002, 2.189247e+003
2.224873e+002, 2.316398e+003
2.225262e+002, 2.404973e+003
2.225651e+002, 2.361559e+003
2.226040e+002, 2.030915e+003
2.226430e+002, 2.309274e+003
2.226819e+002, 2.348252e+003
2.227208e+002, 2.146909e+003
2.227597e+002, 2.261693e+003
2.227986e+002, 1.927151e+003
2.228376e+002, 2.265726e+003
2.228765e+002, 2.134409e+003
2.229154e+002, 2.377553e+003
2.229543e+002, 2.167742e+003
2.229933e+002, 2.329839e+003
2.230322e+002, 2.103495e+003
2.230711e+002, 2.308468e+003
2.231100e+002, 2.244087e+003
2.231489e+002, 2.435215e+003
2.231879e+002, 2.269355e+003
2.232268e+002, 2.236156e+003
2.232657e+002, 2.283602e+003
2.233046e+002, 2.132527e+003
2.233435e+002, 2.164381e+003
2.233824e+002, 2.214247e+003
2.234214e+002, 2.355914e+003
2.234603e+002, 2.146775e+003
2.234992e+002, 2.248656e+003
2.235381e+002, 2.142607e+003
2.235771e+002, 2.147312e+003
2.236160e+002, 2.301210e+003
2.236549e+002, 1.980108e+003
2.236938e+002, 2.211424e+003
2.237327e+002, 2.121102e+003
2.237717e+002, 2.143280e+003
2.238106e+002, 2.197581e+003
2.238495e+002, 2.288440e+003
2.238884e+002, 2.111022e+003
2.239273e+002, 1.920296e+003
2.239663e+002, 2.331451e+003
2.240052e+002, 2.259139e+003
2.240441e+002, 2.199731e+003
2.240830e+002, 2.135350e+003
2.241219e+002, 2.209005e+003
2.241609e+002, 2.075538e+003
2.241998e+002, 2.156183e+003
2.242387e+002, 2.078764e+003
2.242776e+002, 2.349999e+003
2.243165e+002, 2.156586e+003
2.243555e+002, 1.979301e+003
2.243944e+002, 2.009946e+003
2.244333e+002, 2.288709e+003
2.244722e+002, 2.157392e+003
2.245112e+002, 1.973791e+003
2.245501e+002, 2.147715e+003
2.245890e+002, 2.236021e+003
2.246279e+002, 2.163575e+003
2.246668e+002, 1.869490e+003
2.247057e+002, 2.122849e+003
2.247447e+002, 2.324731e+003
2.247836e+002, 2.222581e+003
2.248225e+002, 2.285887e+003
2.248614e+002, 2.333737e+003
2.249004e+002, 2.281451e+003
2.249393e+002, 1.966398e+003
2.249782e+002, 2.057527e+003
2.250171e+002, 2.165591e+003
2.250560e+002, 2.173925e+003
2.250950e+002, 2.104839e+003
2.251339e+002, 2.165323e+003
2.251728e+002, 2.126613e+003
2.252117e+002, 2.250403e+003
2.252506e+002, 1.977016e+003
2.252896e+002, 1.803227e+003
2.253285e+002, 2.147984e+003
2.253674e+002, 2.077823e+003
2.254063e+002, 2.114382e+003
2.254453e+002, 2.132392e+003
2.254842e+002, 2.093414e+003
2.255231e+002, 1.975807e+003
2.255620e+002, 2.114113e+003
2.256009e+002, 2.220565e+003
2.256398e+002, 2.074865e+003
2.256788e+002, 2.097177e+003
2.257177e+002, 2.143280e+003
2.257566e+002, 1.936694e+003
2.257955e+002, 2.087634e+003
2.258344e+002, 1.943279e+003
2.258734e+002, 1.966533e+003
2.259123e+002, 2.145161e+003
2.259512e+002, 2.142070e+003
2.259901e+002, 2.159946e+003
2.260291e+002, 1.872850e+003
2.260680e+002, 2.052823e+003
2.261069e+002, 2.015591e+003
2.261458e+002, 2.383063e+003
2.261847e+002, 1.913038e+003
2.262237e+002, 1.813172e+003
2.262626e+002, 2.004032e+003
2.263015e+002, 2.155779e+003
2.263404e+002, 2.016129e+003
2.263793e+002, 1.989651e+003
2.264183e+002, 2.223656e+003
2.264572e+002, 2.054436e+003
2.264961e+002, 2.085081e+003
2.265350e+002, 2.118952e+003
2.265739e+002, 1.866130e+003
2.266129e+002, 2.223252e+003
2.266518e+002, 2.027285e+003
2.266907e+002, 2.269086e+003
2.267296e+002, 2.165726e+003
2.267686e+002, 2.119892e+003
2.268075e+002, 2.131452e+003
2.268464e+002, 2.282258e+003
2.268853e+002, 2.349193e+003
2.269242e+002, 2.131989e+003
2.269632e+002, 1.911291e+003
2.270021e+002, 2.252150e+003
2.270410e+002, 1.966264e+003
2.270799e+002, 1.965860e+003
2.271188e+002, 1.817743e+003
2.271577e+002, 1.954032e+003
2.271967e+002, 2.045430e+003
2.272356e+002, 2.001075e+003
2.272745e+002, 1.867877e+003
2.273134e+002, 1.834947e+003
2.273524e+002, 1.989785e+003
2.273913e+002, 2.305914e+003
2.274302e+002, 2.146909e+003
2.274691e+002, 2.066533e+003
2.275080e+002, 1.961290e+003
2.275470e+002, 2.065457e+003
2.275859e+002, 2.068145e+003
2.276248e+002, 1.931989e+003
2.276637e+002, 2.073656e+003
2.277026e+002, 1.964382e+003
2.277416e+002, 1.973253e+003
2.277805e+002, 2.116397e+003
2.278194e+002, 1.920027e+003
2.278583e+002, 2.003763e+003
2.278972e+002, 1.980108e+003
2.279362e+002, 2.021236e+003
2.279751e+002, 1.980377e+003
2.280140e+002, 1.834006e+003
2.280529e+002, 1.982124e+003
2.280918e+002, 1.873656e+003
2.281308e+002, 1.955376e+003
2.281697e+002, 2.056452e+003
2.282086e+002, 2.209274e+003
2.282475e+002, 1.927554e+003
2.282864e+002, 2.062634e+003
2.283254e+002, 1.979839e+003
2.283643e+002, 1.950806e+003
2.284032e+002, 1.913979e+003
2.284421e+002, 1.925538e+003
2.284810e+002, 2.025538e+003
2.285200e+002, 1.969085e+003
2.285589e+002, 1.843818e+003
2.285978e+002, 1.961425e+003
2.286367e+002, 2.157258e+003
2.286757e+002, 2.040860e+003
2.287146e+002, 2.041397e+003
2.287535e+002, 2.181586e+003
2.287924e+002, 2.026075e+003
2.288313e+002, 1.987769e+003
2.288703e+002, 2.230645e+003
2.289092e+002, 2.029839e+003
2.289481e+002, 2.173521e+003
2.289870e+002, 2.155914e+003
2.290259e+002, 1.956721e+003
2.290648e+002, 2.109812e+003
2.291038e+002, 2.091936e+003
2.291427e+002, 1.962769e+003
2.291816e+002, 2.121371e+003
2.292206e+002, 1.943011e+003
2.292595e+002, 1.964113e+003
2.292984e+002, 2.039651e+003
2.293373e+002, 2.046908e+003
2.293762e+002, 2.088978e+003
2.294151e+002, 1.925941e+003
2.294541e+002, 1.912635e+003
2.294930e+002, 2.161693e+003
2.295319e+002, 2.094221e+003
2.295708e+002, 2.098387e+003
2.296097e+002, 1.787366e+003
2.296487e+002, 2.084543e+003
2.296876e+002, 2.082527e+003
2.297265e+002, 1.873119e+003
2.297654e+002, 2.053360e+003
2.298044e+002, 2.042474e+003
2.298433e+002, 2.053360e+003
2.298822e+002, 1.965726e+003
2.299211e+002, 2.052285e+003
2.299600e+002, 2.006855e+003
2.299990e+002, 2.091129e+003
2.300379e+002, 2.084274e+003
2.300768e+002, 1.976076e+003
2.301157e+002, 2.261693e+003
2.301546e+002, 1.992205e+003
2.301936e+002, 1.977823e+003
2.302325e+002, 2.089113e+003
2.302714e+002, 2.000402e+003
2.303103e+002, 1.856855e+003
2.303492e+002, 2.037096e+003
2.303882e+002, 1.815593e+003
2.304271e+002, 2.012231e+003
2.304660e+002, 2.029838e+003
2.305049e+002, 1.808737e+003
2.305439e+002, 1.742070e+003
2.305828e+002, 1.916532e+003
2.306217e+002, 1.895968e+003
2.306606e+002, 1.682259e+003
2.306995e+002, 1.947580e+003
2.307384e+002, 1.904974e+003
2.307774e+002, 1.813038e+003
2.308163e+002, 1.885215e+003
2.308552e+002, 1.888039e+003
2.308941e+002, 1.930780e+003
2.309330e+002, 2.047714e+003
2.309720e+002, 1.867205e+003
2.310109e+002, 1.941532e+003
2.310498e+002, 1.972178e+003
2.310887e+002, 1.867339e+003
2.311277e+002, 1.992204e+003
2.311666e+002, 2.031586e+003
2.312055e+002, 1.863307e+003
2.312444e+002, 1.929838e+003
2.312833e+002, 2.080510e+003
2.313223e+002, 2.036828e+003
2.313612e+002, 1.991264e+003
2.314001e+002, 1.956048e+003
2.314390e+002, 2.146236e+003
2.314779e+002, 1.950404e+003
2.315169e+002, 1.787770e+003
2.315558e+002, 1.984409e+003
2.315947e+002, 2.086828e+003
2.316336e+002, 1.949328e+003
2.316725e+002, 1.939113e+003
2.317115e+002, 1.938845e+003
2.317504e+002, 2.122178e+003
2.317893e+002, 2.132930e+003
2.318282e+002, 1.808065e+003
2.318671e+002, 1.847984e+003
2.319061e+002, 1.951075e+003
2.319450e+002, 1.961425e+003
2.319839e+002, 1.784677e+003
2.320228e+002, 1.744086e+003
2.320617e+002, 1.821909e+003
2.321007e+002, 2.115053e+003
2.321396e+002, 1.908737e+003
2.321785e+002, 2.064247e+003
2.322174e+002, 2.069489e+003
2.322563e+002, 2.172177e+003
2.322953e+002, 1.655511e+003
2.323342e+002, 1.765860e+003
2.323731e+002, 1.825269e+003
2.324120e+002, 2.021909e+003
2.324510e+002, 1.882258e+003
2.324899e+002, 2.016667e+003
2.325288e+002, 1.893011e+003
2.325677e+002, 1.738307e+003
2.326066e+002, 1.926747e+003
2.326456e+002, 1.781318e+003
2.326845e+002, 1.919489e+003
2.327234e+002, 2.189919e+003
2.327623e+002, 1.854436e+003
2.328012e+002, 2.100000e+003
2.328401e+002, 1.966667e+003
2.328791e+002, 2.052150e+003
2.329180e+002, 1.852554e+003
2.329569e+002, 1.832527e+003
2.329958e+002, 1.733200e+003
2.330348e+002, 1.939785e+003
2.330737e+002, 1.950135e+003
2.331126e+002, 1.863306e+003
2.331515e+002, 1.876881e+003
2.331904e+002, 1.956586e+003
2.332294e+002, 2.039113e+003
2.332683e+002, 1.742742e+003
2.333072e+002, 1.977554e+003
2.333461e+002, 1.828629e+003
2.333850e+002, 1.860080e+003
2.334240e+002, 1.701882e+003
2.334629e+002, 1.665323e+003
2.335018e+002, 1.733065e+003
2.335407e+002, 1.890860e+003
2.335797e+002, 1.801613e+003
2.336186e+002, 1.788172e+003
2.336575e+002, 1.986291e+003
2.336964e+002, 1.847850e+003
2.337353e+002, 1.719087e+003
2.337743e+002, 1.971774e+003
2.338132e+002, 1.905646e+003
2.338521e+002, 1.822984e+003
2.338910e+002, 1.944489e+003
2.339299e+002, 1.870296e+003
2.339689e+002, 1.846909e+003
2.340078e+002, 1.931317e+003
2.340467e+002, 1.660349e+003
2.340856e+002, 1.850269e+003
2.341245e+002, 1.933737e+003
2.341635e+002, 1.642877e+003
2.342024e+002, 1.881586e+003
2.342413e+002, 1.869758e+003
2.342802e+002, 1.804705e+003
2.343192e+002, 1.887365e+003
2.343581e+002, 1.787634e+003
2.343970e+002, 1.541398e+003
2.344359e+002, 1.675135e+003
2.344748e+002, 1.861559e+003
2.345137e+002, 1.595162e+003
2.345527e+002, 1.980242e+003
2.345916e+002, 1.777823e+003
2.346305e+002, 1.920027e+003
2.346694e+002, 1.721238e+003
2.347083e+002, 1.853629e+003
2.347473e+002, 1.863978e+003
2.347862e+002, 1.891398e+003
2.348251e+002, 1.623791e+003
2.348640e+002, 1.704301e+003
2.349030e+002, 1.760215e+003
2.349419e+002, 1.810618e+003
2.349808e+002, 1.854301e+003
2.350197e+002, 1.927016e+003
2.350586e+002, 1.841801e+003
2.350976e+002, 1.806855e+003
2.351365e+002, 1.778494e+003
2.351754e+002, 1.747715e+003
2.352143e+002, 1.723790e+003
2.352532e+002, 1.780914e+003
2.352922e+002, 1.810753e+003
2.353311e+002, 1.716533e+003
2.353700e+002, 1.799597e+003
2.354089e+002, 1.756048e+003
2.354478e+002, 1.885888e+003
2.354868e+002, 1.769221e+003
2.355257e+002, 1.819892e+003
2.355646e+002, 1.666533e+003
2.356035e+002, 1.909006e+003
2.356424e+002, 1.919758e+003
2.356814e+002, 1.704033e+003
2.357203e+002, 1.739919e+003
2.357592e+002, 1.849193e+003
2.357981e+002, 1.628899e+003
2.358370e+002, 1.776613e+003
2.358760e+002, 1.749463e+003
2.359149e+002, 1.828629e+003
2.359538e+002, 2.037500e+003
2.359927e+002, 1.927285e+003
2.360316e+002, 1.824597e+003
2.360706e+002, 2.017338e+003
2.361095e+002, 1.952285e+003
2.361484e+002, 1.756586e+003
2.361873e+002, 1.944220e+003
2.362263e+002, 1.849597e+003
2.362652e+002, 1.738441e+003
2.363041e+002, 1.776344e+003
2.363430e+002, 1.937097e+003
2.363819e+002, 1.925000e+003
2.364209e+002, 1.830780e+003
2.364598e+002, 1.858199e+003
2.364987e+002, 1.817607e+003
2.365376e+002, 1.781587e+003
2.365765e+002, 1.724328e+003
2.366154e+002, 1.707527e+003
2.366544e+002, 1.773387e+003
2.366933e+002, 1.790726e+003
2.367322e+002, 1.412367e+003
2.367711e+002, 1.772849e+003
2.368101e+002, 1.784812e+003
2.368490e+002, 1.503898e+003
2.368879e+002, 1.737097e+003
2.369268e+002, 1.790188e+003
2.369657e+002, 1.713844e+003
2.370047e+002, 1.657527e+003
2.370436e+002, 1.633871e+003
2.370825e+002, 1.794758e+003
2.371214e+002, 1.734678e+003
2.371603e+002, 1.967204e+003
2.371993e+002, 1.871371e+003
2.372382e+002, 1.967474e+003
2.372771e+002, 2.166397e+003
2.373160e+002, 1.689920e+003
2.373549e+002, 1.868548e+003
2.373939e+002, 1.817204e+003
2.374328e+002, 1.633065e+003
2.374717e+002, 1.766936e+003
2.375106e+002, 1.833602e+003
2.375496e+002, 1.784274e+003
2.375885e+002, 1.693952e+003
2.376274e+002, 1.931720e+003
2.376663e+002, 1.707930e+003
2.377052e+002, 1.778360e+003
2.377442e+002, 1.653092e+003
2.377831e+002, 1.799463e+003
2.378220e+002, 1.602151e+003
2.378609e+002, 1.681048e+003
2.378998e+002, 1.537231e+003
2.379388e+002, 1.790860e+003
2.379777e+002, 1.841264e+003
2.380166e+002, 1.786828e+003
2.380555e+002, 1.643280e+003
2.380945e+002, 1.703091e+003
2.381334e+002, 1.696371e+003
2.381723e+002, 1.796774e+003
2.382112e+002, 1.759409e+003
2.382501e+002, 1.864381e+003
2.382890e+002, 1.688575e+003
2.383280e+002, 1.641129e+003
2.383669e+002, 1.756854e+003
2.384058e+002, 1.976747e+003
2.384447e+002, 1.664651e+003
2.384836e+002, 1.759543e+003
2.385226e+002, 1.723925e+003
2.385615e+002, 1.886693e+003
2.386004e+002, 1.613710e+003
2.386393e+002, 1.714516e+003
2.386783e+002, 1.658199e+003
2.387172e+002, 1.677554e+003
2.387561e+002, 1.650404e+003
2.387950e+002, 1.711022e+003
2.388339e+002, 1.457393e+003
2.388729e+002, 1.808333e+003
2.389118e+002, 1.993414e+003
2.389507e+002, 1.674194e+003
2.389896e+002, 1.700000e+003
2.390285e+002, 1.703360e+003
2.390675e+002, 1.714650e+003
2.391064e+002, 1.660215e+003
2.391453e+002, 1.717070e+003
2.391842e+002, 1.579570e+003
2.392231e+002, 1.788038e+003
2.392621e+002, 1.721775e+003
2.393010e+002, 1.604301e+003
2.393399e+002, 1.697312e+003
2.393788e+002, 1.787231e+003
2.394177e+002, 1.737500e+003
2.394567e+002, 1.630645e+003
2.394956e+002, 1.672849e+003
2.395345e+002, 1.787635e+003
2.395734e+002, 1.790323e+003
2.396123e+002, 1.718683e+003
2.396513e+002, 1.510215e+003
2.396902e+002, 1.613037e+003
2.397291e+002, 1.562768e+003
2.397680e+002, 1.692070e+003
2.398069e+002, 1.776479e+003
2.398459e+002, 1.692876e+003
2.398848e+002, 1.679436e+003
2.399237e+002, 1.581586e+003
2.399626e+002, 1.683602e+003
2.400016e+002, 1.540726e+003
2.400405e+002, 1.584006e+003
2.400794e+002, 1.524732e+003
2.401183e+002, 1.737231e+003
2.401572e+002, 1.614248e+003
2.401962e+002, 1.846639e+003
2.402351e+002, 1.684409e+003
2.402740e+002, 1.738844e+003
2.403129e+002, 1.789650e+003
2.403518e+002, 1.630511e+003
2.403907e+002, 1.741263e+003
2.404297e+002, 1.703494e+003
2.404686e+002, 1.583871e+003
2.405075e+002, 1.635350e+003
2.405464e+002, 1.723522e+003
2.405854e+002, 1.642339e+003
2.406243e+002, 1.604302e+003
2.406632e+002, 1.894354e+003
2.407021e+002, 1.699463e+003
2.407410e+002, 1.794892e+003
2.407800e+002, 1.708334e+003
2.408189e+002, 1.659409e+003
2.408578e+002, 1.607259e+003
2.408967e+002, 1.693817e+003
2.409356e+002, 1.586962e+003
2.409746e+002, 1.623925e+003
2.410135e+002, 1.607258e+003
2.410524e+002, 1.538710e+003
2.410913e+002, 1.667205e+003
2.411302e+002, 1.665054e+003
2.411692e+002, 1.618548e+003
2.412081e+002, 1.608199e+003
2.412470e+002, 1.572984e+003
2.412859e+002, 1.680242e+003
2.413249e+002, 1.733602e+003
2.413638e+002, 1.612232e+003
2.414027e+002, 1.506990e+003
2.414416e+002, 1.602419e+003
2.414805e+002, 1.594893e+003
2.415195e+002, 1.540726e+003
2.415584e+002, 1.408333e+003
2.415973e+002, 1.738037e+003
2.416362e+002, 1.712769e+003
2.416751e+002, 1.587904e+003
2.417141e+002, 1.603495e+003
2.417530e+002, 1.810887e+003
2.417919e+002, 1.690323e+003
2.418308e+002, 1.605780e+003
2.418698e+002, 1.558333e+003
2.419087e+002, 1.790188e+003
2.419476e+002, 1.776076e+003
2.419865e+002, 1.734274e+003
2.420254e+002, 1.637635e+003
2.420643e+002, 1.644221e+003
2.421033e+002, 1.734006e+003
2.421422e+002, 1.734408e+003
2.421811e+002, 1.610350e+003
2.422200e+002, 1.645296e+003
2.422589e+002, 1.696103e+003
2.422979e+002, 1.649194e+003
2.423368e+002, 1.633199e+003
2.423757e+002, 1.837365e+003
2.424146e+002, 1.531452e+003
2.424536e+002, 1.588575e+003
2.424925e+002, 1.586963e+003
2.425314e+002, 1.618414e+003
2.425703e+002, 1.669221e+003
2.426092e+002, 1.873118e+003
2.426482e+002, 1.715726e+003
2.426871e+002, 1.556318e+003
2.427260e+002, 1.618817e+003
2.427649e+002, 1.633871e+003
2.428038e+002, 1.564381e+003
2.428428e+002, 1.506855e+003
2.428817e+002, 1.671102e+003
2.429206e+002, 1.500538e+003
2.429595e+002, 1.600538e+003
2.429984e+002, 1.709274e+003
2.430374e+002, 1.755107e+003
2.430763e+002, 1.591398e+003
2.431152e+002, 1.580780e+003
2.431541e+002, 1.672849e+003
2.431930e+002, 1.679705e+003
2.432320e+002, 1.694220e+003
2.432709e+002, 1.551882e+003
2.433098e+002, 1.746102e+003
2.433487e+002, 1.705914e+003
2.433876e+002, 1.594893e+003
2.434266e+002, 1.652957e+003
2.434655e+002, 1.875135e+003
2.435044e+002, 1.541264e+003
2.435433e+002, 1.508334e+003
2.435822e+002, 1.692204e+003
2.436212e+002, 1.555108e+003
2.436601e+002, 1.555108e+003
2.436990e+002, 1.555108e+003
2.437379e+002, 1.555108e+003
2.437769e+002, 1.555108e+003
2.438158e+002, 1.555108e+003
#ENDOFDATA   : End Of Data and File