#FORMAT	     : EMSA/MAS Spectral Data File
#VERSION     : 1.0
#TITLE       : EELS #C# 125x 374eV I5 B1 3x3s
#DATE        : 
#TIME        : 
#OWNER       : Ansgar Donner
#NPOINTS     : 4096
#NCOLUMNS    : 1
#XUNITS      : eV
#YUNITS      : e-
#DATATYPE    : XY
#XPERCHAN    : 5.172414e-002
#OFFSET      : 2.680690e+002
#SIGNALTYPE  : ELS
#BEAMKV      : 200000.000000
#MAGCAM      : 100000.000000
#EMISSION    : 0.000000
#PROBECUR    : 0.000000
#BEAMDIAM    : 0.000000
#SPECTRUM    : Spectral Data Starts Here
2.680690e+002, 4.177405e+004
2.681207e+002, 4.177405e+004
2.681724e+002, 4.177405e+004
2.682242e+002, 4.177405e+004
2.682759e+002, 4.177405e+004
2.683276e+002, 4.177405e+004
2.683793e+002, 4.177405e+004
2.684310e+002, 4.177405e+004
2.684828e+002, 4.177405e+004
2.685345e+002, 4.177405e+004
2.685862e+002, 4.177405e+004
2.686379e+002, 4.174052e+004
2.686897e+002, 4.193304e+004
2.687414e+002, 4.176025e+004
2.687931e+002, 4.173934e+004
2.688448e+002, 4.174002e+004
2.688965e+002, 4.181536e+004
2.689483e+002, 4.167236e+004
2.690000e+002, 4.157474e+004
2.690517e+002, 4.147941e+004
2.691035e+002, 4.149612e+004
2.691552e+002, 4.147607e+004
2.692069e+002, 4.148564e+004
2.692586e+002, 4.151024e+004
2.693104e+002, 4.173292e+004
2.693621e+002, 4.183002e+004
2.694138e+002, 4.171099e+004
2.694655e+002, 4.156325e+004
2.695172e+002, 4.171673e+004
2.695690e+002, 4.153551e+004
2.696207e+002, 4.156754e+004
2.696724e+002, 4.143618e+004
2.697242e+002, 4.142766e+004
2.697759e+002, 4.168640e+004
2.698276e+002, 4.164190e+004
2.698793e+002, 4.157949e+004
2.699310e+002, 4.157563e+004
2.699828e+002, 4.172825e+004
2.700345e+002, 4.124766e+004
2.700862e+002, 4.132691e+004
2.701379e+002, 4.122188e+004
2.701897e+002, 4.109032e+004
2.702414e+002, 4.132378e+004
2.702931e+002, 4.171443e+004
2.703448e+002, 4.154637e+004
2.703965e+002, 4.135981e+004
2.704483e+002, 4.126878e+004
2.705000e+002, 4.124272e+004
2.705517e+002, 4.132166e+004
2.706035e+002, 4.126584e+004
2.706552e+002, 4.119320e+004
2.707069e+002, 4.113459e+004
2.707586e+002, 4.131996e+004
2.708104e+002, 4.132763e+004
2.708621e+002, 4.140874e+004
2.709138e+002, 4.117268e+004
2.709655e+002, 4.075389e+004
2.710172e+002, 4.090301e+004
2.710690e+002, 4.115248e+004
2.711207e+002, 4.113636e+004
2.711724e+002, 4.112719e+004
2.712242e+002, 4.123078e+004
2.712759e+002, 4.105180e+004
2.713276e+002, 4.098756e+004
2.713793e+002, 4.089061e+004
2.714310e+002, 4.076876e+004
2.714828e+002, 4.108108e+004
2.715345e+002, 4.126411e+004
2.715862e+002, 4.110011e+004
2.716379e+002, 4.091405e+004
2.716897e+002, 4.089105e+004
2.717414e+002, 4.090060e+004
2.717931e+002, 4.105131e+004
2.718448e+002, 4.094984e+004
2.718965e+002, 4.069110e+004
2.719483e+002, 4.089192e+004
2.720000e+002, 4.091018e+004
2.720517e+002, 4.081171e+004
2.721035e+002, 4.076442e+004
2.721552e+002, 4.073230e+004
2.722069e+002, 4.056547e+004
2.722586e+002, 4.080220e+004
2.723104e+002, 4.083318e+004
2.723621e+002, 4.074147e+004
2.724138e+002, 4.082557e+004
2.724655e+002, 4.079003e+004
2.725172e+002, 4.076425e+004
2.725690e+002, 4.097353e+004
2.726207e+002, 4.109464e+004
2.726724e+002, 4.118113e+004
2.727242e+002, 4.131457e+004
2.727759e+002, 4.129421e+004
2.728276e+002, 4.117352e+004
2.728793e+002, 4.124799e+004
2.729310e+002, 4.130854e+004
2.729828e+002, 4.103898e+004
2.730345e+002, 4.097823e+004
2.730862e+002, 4.116864e+004
2.731379e+002, 4.116808e+004
2.731897e+002, 4.157127e+004
2.732414e+002, 4.146045e+004
2.732931e+002, 4.118962e+004
2.733448e+002, 4.115252e+004
2.733965e+002, 4.113927e+004
2.734483e+002, 4.105197e+004
2.735000e+002, 4.130397e+004
2.735517e+002, 4.147604e+004
2.736035e+002, 4.129778e+004
2.736552e+002, 4.137625e+004
2.737069e+002, 4.178532e+004
2.737586e+002, 4.162499e+004
2.738104e+002, 4.173706e+004
2.738621e+002, 4.179918e+004
2.739138e+002, 4.174836e+004
2.739655e+002, 4.169297e+004
2.740172e+002, 4.180551e+004
2.740690e+002, 4.171378e+004
2.741207e+002, 4.206740e+004
2.741724e+002, 4.214762e+004
2.742242e+002, 4.236432e+004
2.742759e+002, 4.245964e+004
2.743276e+002, 4.273071e+004
2.743793e+002, 4.305181e+004
2.744310e+002, 4.328316e+004
2.744828e+002, 4.332661e+004
2.745345e+002, 4.331381e+004
2.745862e+002, 4.370096e+004
2.746379e+002, 4.424749e+004
2.746897e+002, 4.424712e+004
2.747414e+002, 4.436560e+004
2.747931e+002, 4.475855e+004
2.748448e+002, 4.520467e+004
2.748965e+002, 4.559884e+004
2.749483e+002, 4.606738e+004
2.750000e+002, 4.662845e+004
2.750517e+002, 4.710068e+004
2.751035e+002, 4.756893e+004
2.751552e+002, 4.800413e+004
2.752069e+002, 4.841157e+004
2.752586e+002, 4.919281e+004
2.753104e+002, 4.980240e+004
2.753621e+002, 5.081141e+004
2.754138e+002, 5.180043e+004
2.754655e+002, 5.246150e+004
2.755172e+002, 5.322309e+004
2.755690e+002, 5.412009e+004
2.756207e+002, 5.505750e+004
2.756724e+002, 5.664836e+004
2.757242e+002, 5.796352e+004
2.757759e+002, 5.914372e+004
2.758276e+002, 6.048845e+004
2.758793e+002, 6.198805e+004
2.759310e+002, 6.369155e+004
2.759828e+002, 6.494840e+004
2.760345e+002, 6.657064e+004
2.760862e+002, 6.865188e+004
2.761379e+002, 7.088427e+004
2.761897e+002, 7.284413e+004
2.762414e+002, 7.478411e+004
2.762931e+002, 7.704077e+004
2.763448e+002, 7.911579e+004
2.763965e+002, 8.152723e+004
2.764483e+002, 8.435713e+004
2.765000e+002, 8.687451e+004
2.765517e+002, 8.921272e+004
2.766035e+002, 9.221555e+004
2.766552e+002, 9.496248e+004
2.767069e+002, 9.720527e+004
2.767586e+002, 1.003304e+005
2.768104e+002, 1.034905e+005
2.768621e+002, 1.063634e+005
2.769138e+002, 1.094143e+005
2.769655e+002, 1.128375e+005
2.770172e+002, 1.160878e+005
2.770690e+002, 1.191654e+005
2.771207e+002, 1.222791e+005
2.771724e+002, 1.258470e+005
2.772242e+002, 1.296666e+005
2.772759e+002, 1.334560e+005
2.773276e+002, 1.366237e+005
2.773793e+002, 1.399464e+005
2.774310e+002, 1.435083e+005
2.774828e+002, 1.468923e+005
2.775345e+002, 1.507639e+005
2.775862e+002, 1.548483e+005
2.776379e+002, 1.582817e+005
2.776897e+002, 1.618778e+005
2.777414e+002, 1.656626e+005
2.777931e+002, 1.693620e+005
2.778448e+002, 1.728985e+005
2.778965e+002, 1.764582e+005
2.779483e+002, 1.795605e+005
2.780000e+002, 1.835144e+005
2.780517e+002, 1.873703e+005
2.781035e+002, 1.904263e+005
2.781552e+002, 1.933935e+005
2.782069e+002, 1.968918e+005
2.782586e+002, 1.997435e+005
2.783104e+002, 2.026407e+005
2.783621e+002, 2.056782e+005
2.784138e+002, 2.088067e+005
2.784655e+002, 2.115608e+005
2.785172e+002, 2.141622e+005
2.785690e+002, 2.169582e+005
2.786207e+002, 2.190781e+005
2.786724e+002, 2.209780e+005
2.787242e+002, 2.228930e+005
2.787759e+002, 2.250679e+005
2.788276e+002, 2.273917e+005
2.788793e+002, 2.291421e+005
2.789310e+002, 2.306787e+005
2.789828e+002, 2.321890e+005
2.790345e+002, 2.334118e+005
2.790862e+002, 2.347348e+005
2.791379e+002, 2.353981e+005
2.791897e+002, 2.356892e+005
2.792414e+002, 2.362931e+005
2.792931e+002, 2.371376e+005
2.793448e+002, 2.379094e+005
2.793965e+002, 2.385686e+005
2.794483e+002, 2.382161e+005
2.795000e+002, 2.385247e+005
2.795517e+002, 2.380872e+005
2.796035e+002, 2.376330e+005
2.796552e+002, 2.371603e+005
2.797069e+002, 2.370021e+005
2.797586e+002, 2.368837e+005
2.798104e+002, 2.363972e+005
2.798621e+002, 2.358851e+005
2.799138e+002, 2.351611e+005
2.799655e+002, 2.344828e+005
2.800172e+002, 2.335500e+005
2.800690e+002, 2.318822e+005
2.801207e+002, 2.310409e+005
2.801724e+002, 2.306339e+005
2.802242e+002, 2.302096e+005
2.802759e+002, 2.295216e+005
2.803276e+002, 2.286704e+005
2.803793e+002, 2.278795e+005
2.804310e+002, 2.270752e+005
2.804828e+002, 2.262917e+005
2.805345e+002, 2.261638e+005
2.805862e+002, 2.253038e+005
2.806379e+002, 2.248668e+005
2.806897e+002, 2.240492e+005
2.807414e+002, 2.234612e+005
2.807931e+002, 2.229498e+005
2.808448e+002, 2.224814e+005
2.808965e+002, 2.216443e+005
2.809483e+002, 2.211985e+005
2.810000e+002, 2.211918e+005
2.810517e+002, 2.205372e+005
2.811035e+002, 2.201733e+005
2.811552e+002, 2.198875e+005
2.812069e+002, 2.191976e+005
2.812586e+002, 2.192993e+005
2.813104e+002, 2.194055e+005
2.813621e+002, 2.195694e+005
2.814138e+002, 2.194584e+005
2.814655e+002, 2.196502e+005
2.815172e+002, 2.193524e+005
2.815690e+002, 2.195083e+005
2.816207e+002, 2.197508e+005
2.816724e+002, 2.198472e+005
2.817242e+002, 2.199755e+005
2.817759e+002, 2.202322e+005
2.818276e+002, 2.201493e+005
2.818793e+002, 2.202996e+005
2.819310e+002, 2.205807e+005
2.819828e+002, 2.209655e+005
2.820345e+002, 2.219480e+005
2.820862e+002, 2.228338e+005
2.821379e+002, 2.232326e+005
2.821897e+002, 2.240647e+005
2.822414e+002, 2.249848e+005
2.822931e+002, 2.256679e+005
2.823448e+002, 2.269212e+005
2.823965e+002, 2.277434e+005
2.824483e+002, 2.283483e+005
2.825000e+002, 2.299846e+005
2.825517e+002, 2.315447e+005
2.826035e+002, 2.323939e+005
2.826552e+002, 2.337059e+005
2.827069e+002, 2.350875e+005
2.827586e+002, 2.367571e+005
2.828104e+002, 2.383076e+005
2.828621e+002, 2.398700e+005
2.829138e+002, 2.415163e+005
2.829655e+002, 2.427472e+005
2.830172e+002, 2.442776e+005
2.830690e+002, 2.463347e+005
2.831207e+002, 2.486259e+005
2.831724e+002, 2.505190e+005
2.832242e+002, 2.528015e+005
2.832759e+002, 2.552218e+005
2.833276e+002, 2.570930e+005
2.833793e+002, 2.591927e+005
2.834310e+002, 2.612545e+005
2.834828e+002, 2.639218e+005
2.835345e+002, 2.661490e+005
2.835862e+002, 2.693024e+005
2.836379e+002, 2.719637e+005
2.836897e+002, 2.744677e+005
2.837414e+002, 2.772235e+005
2.837931e+002, 2.800317e+005
2.838448e+002, 2.829021e+005
2.838965e+002, 2.857903e+005
2.839483e+002, 2.888425e+005
2.840000e+002, 2.912185e+005
2.840517e+002, 2.937098e+005
2.841035e+002, 2.964936e+005
2.841552e+002, 2.997064e+005
2.842069e+002, 3.031228e+005
2.842586e+002, 3.061293e+005
2.843104e+002, 3.092463e+005
2.843621e+002, 3.119820e+005
2.844138e+002, 3.147124e+005
2.844655e+002, 3.178795e+005
2.845172e+002, 3.208481e+005
2.845690e+002, 3.235568e+005
2.846207e+002, 3.267340e+005
2.846724e+002, 3.302886e+005
2.847242e+002, 3.338603e+005
2.847759e+002, 3.370890e+005
2.848276e+002, 3.400694e+005
2.848793e+002, 3.430403e+005
2.849310e+002, 3.463063e+005
2.849828e+002, 3.491859e+005
2.850345e+002, 3.519869e+005
2.850862e+002, 3.548843e+005
2.851379e+002, 3.576946e+005
2.851897e+002, 3.597997e+005
2.852414e+002, 3.621196e+005
2.852931e+002, 3.653623e+005
2.853448e+002, 3.688002e+005
2.853965e+002, 3.711739e+005
2.854483e+002, 3.737704e+005
2.855000e+002, 3.762826e+005
2.855517e+002, 3.786091e+005
2.856035e+002, 3.804493e+005
2.856552e+002, 3.823778e+005
2.857069e+002, 3.844317e+005
2.857586e+002, 3.869888e+005
2.858104e+002, 3.897778e+005
2.858621e+002, 3.916621e+005
2.859138e+002, 3.937091e+005
2.859655e+002, 3.959786e+005
2.860172e+002, 3.975945e+005
2.860690e+002, 3.994360e+005
2.861207e+002, 4.015923e+005
2.861724e+002, 4.036997e+005
2.862242e+002, 4.053908e+005
2.862759e+002, 4.064511e+005
2.863276e+002, 4.077352e+005
2.863793e+002, 4.095360e+005
2.864310e+002, 4.113058e+005
2.864828e+002, 4.126770e+005
2.865345e+002, 4.142945e+005
2.865862e+002, 4.152401e+005
2.866379e+002, 4.162225e+005
2.866897e+002, 4.172146e+005
2.867414e+002, 4.180891e+005
2.867931e+002, 4.187649e+005
2.868448e+002, 4.200258e+005
2.868965e+002, 4.205417e+005
2.869483e+002, 4.211703e+005
2.870000e+002, 4.221072e+005
2.870517e+002, 4.237412e+005
2.871035e+002, 4.243650e+005
2.871552e+002, 4.247292e+005
2.872069e+002, 4.251867e+005
2.872586e+002, 4.256024e+005
2.873104e+002, 4.255786e+005
2.873621e+002, 4.267668e+005
2.874138e+002, 4.276676e+005
2.874655e+002, 4.280200e+005
2.875172e+002, 4.283469e+005
2.875690e+002, 4.297273e+005
2.876207e+002, 4.307314e+005
2.876724e+002, 4.312212e+005
2.877242e+002, 4.310698e+005
2.877759e+002, 4.314421e+005
2.878276e+002, 4.328311e+005
2.878793e+002, 4.327932e+005
2.879310e+002, 4.332514e+005
2.879828e+002, 4.332228e+005
2.880345e+002, 4.337256e+005
2.880862e+002, 4.342579e+005
2.881379e+002, 4.349530e+005
2.881897e+002, 4.353668e+005
2.882414e+002, 4.355323e+005
2.882931e+002, 4.360655e+005
2.883448e+002, 4.360327e+005
2.883965e+002, 4.361541e+005
2.884483e+002, 4.362273e+005
2.885000e+002, 4.357338e+005
2.885517e+002, 4.361271e+005
2.886035e+002, 4.363082e+005
2.886552e+002, 4.356893e+005
2.887069e+002, 4.364832e+005
2.887586e+002, 4.373999e+005
2.888104e+002, 4.373728e+005
2.888621e+002, 4.375441e+005
2.889138e+002, 4.375310e+005
2.889655e+002, 4.374354e+005
2.890172e+002, 4.376099e+005
2.890690e+002, 4.385819e+005
2.891207e+002, 4.388382e+005
2.891724e+002, 4.393081e+005
2.892242e+002, 4.394131e+005
2.892759e+002, 4.393640e+005
2.893276e+002, 4.388985e+005
2.893793e+002, 4.391275e+005
2.894310e+002, 4.395396e+005
2.894828e+002, 4.407427e+005
2.895345e+002, 4.415596e+005
2.895862e+002, 4.425508e+005
2.896379e+002, 4.425988e+005
2.896897e+002, 4.421565e+005
2.897414e+002, 4.416056e+005
2.897931e+002, 4.415454e+005
2.898448e+002, 4.411360e+005
2.898965e+002, 4.410911e+005
2.899483e+002, 4.413028e+005
2.900000e+002, 4.414368e+005
2.900517e+002, 4.411975e+005
2.901035e+002, 4.419700e+005
2.901552e+002, 4.432043e+005
2.902069e+002, 4.436890e+005
2.902586e+002, 4.440246e+005
2.903104e+002, 4.442348e+005
2.903621e+002, 4.437897e+005
2.904138e+002, 4.444283e+005
2.904655e+002, 4.442623e+005
2.905172e+002, 4.443894e+005
2.905690e+002, 4.449680e+005
2.906207e+002, 4.444464e+005
2.906724e+002, 4.442538e+005
2.907242e+002, 4.450079e+005
2.907759e+002, 4.450995e+005
2.908276e+002, 4.452037e+005
2.908793e+002, 4.453782e+005
2.909310e+002, 4.464242e+005
2.909828e+002, 4.461922e+005
2.910345e+002, 4.456229e+005
2.910862e+002, 4.453183e+005
2.911379e+002, 4.456175e+005
2.911897e+002, 4.458947e+005
2.912414e+002, 4.454967e+005
2.912931e+002, 4.451651e+005
2.913448e+002, 4.449614e+005
2.913965e+002, 4.453915e+005
2.914483e+002, 4.458390e+005
2.915000e+002, 4.457875e+005
2.915517e+002, 4.464407e+005
2.916035e+002, 4.467041e+005
2.916552e+002, 4.469032e+005
2.917069e+002, 4.469347e+005
2.917586e+002, 4.473158e+005
2.918104e+002, 4.477598e+005
2.918621e+002, 4.480288e+005
2.919138e+002, 4.473545e+005
2.919655e+002, 4.466890e+005
2.920172e+002, 4.470081e+005
2.920690e+002, 4.464758e+005
2.921207e+002, 4.470047e+005
2.921724e+002, 4.471579e+005
2.922242e+002, 4.473660e+005
2.922759e+002, 4.472571e+005
2.923276e+002, 4.473461e+005
2.923793e+002, 4.464762e+005
2.924310e+002, 4.460405e+005
2.924828e+002, 4.462680e+005
2.925345e+002, 4.460313e+005
2.925862e+002, 4.458508e+005
2.926379e+002, 4.458772e+005
2.926897e+002, 4.450237e+005
2.927414e+002, 4.453828e+005
2.927931e+002, 4.456805e+005
2.928448e+002, 4.458195e+005
2.928965e+002, 4.454712e+005
2.929483e+002, 4.459504e+005
2.930000e+002, 4.456385e+005
2.930517e+002, 4.452800e+005
2.931035e+002, 4.446374e+005
2.931552e+002, 4.448209e+005
2.932069e+002, 4.444741e+005
2.932586e+002, 4.447612e+005
2.933104e+002, 4.442143e+005
2.933621e+002, 4.443511e+005
2.934138e+002, 4.447079e+005
2.934655e+002, 4.446639e+005
2.935172e+002, 4.442758e+005
2.935690e+002, 4.439800e+005
2.936207e+002, 4.433644e+005
2.936724e+002, 4.425018e+005
2.937242e+002, 4.424376e+005
2.937759e+002, 4.419305e+005
2.938276e+002, 4.420153e+005
2.938793e+002, 4.418320e+005
2.939310e+002, 4.413613e+005
2.939828e+002, 4.421281e+005
2.940345e+002, 4.423759e+005
2.940862e+002, 4.413336e+005
2.941379e+002, 4.404136e+005
2.941897e+002, 4.402112e+005
2.942414e+002, 4.396905e+005
2.942931e+002, 4.396384e+005
2.943448e+002, 4.395259e+005
2.943965e+002, 4.388475e+005
2.944483e+002, 4.384936e+005
2.945000e+002, 4.387208e+005
2.945517e+002, 4.374392e+005
2.946035e+002, 4.376767e+005
2.946552e+002, 4.371109e+005
2.947069e+002, 4.363010e+005
2.947586e+002, 4.360323e+005
2.948104e+002, 4.352520e+005
2.948621e+002, 4.348951e+005
2.949138e+002, 4.353252e+005
2.949655e+002, 4.351539e+005
2.950172e+002, 4.339602e+005
2.950690e+002, 4.337916e+005
2.951207e+002, 4.341702e+005
2.951724e+002, 4.339314e+005
2.952242e+002, 4.336185e+005
2.952759e+002, 4.333045e+005
2.953276e+002, 4.321749e+005
2.953793e+002, 4.314641e+005
2.954310e+002, 4.302821e+005
2.954828e+002, 4.298518e+005
2.955345e+002, 4.295450e+005
2.955862e+002, 4.295659e+005
2.956379e+002, 4.285667e+005
2.956897e+002, 4.282367e+005
2.957414e+002, 4.279475e+005
2.957931e+002, 4.275066e+005
2.958448e+002, 4.268495e+005
2.958965e+002, 4.262853e+005
2.959483e+002, 4.259865e+005
2.960000e+002, 4.256113e+005
2.960517e+002, 4.250748e+005
2.961035e+002, 4.241538e+005
2.961552e+002, 4.240046e+005
2.962069e+002, 4.240296e+005
2.962586e+002, 4.226907e+005
2.963104e+002, 4.215174e+005
2.963621e+002, 4.210330e+005
2.964138e+002, 4.205486e+005
2.964655e+002, 4.206205e+005
2.965172e+002, 4.204716e+005
2.965690e+002, 4.200773e+005
2.966207e+002, 4.196595e+005
2.966724e+002, 4.188023e+005
2.967242e+002, 4.177153e+005
2.967759e+002, 4.170249e+005
2.968276e+002, 4.155537e+005
2.968793e+002, 4.150984e+005
2.969310e+002, 4.151466e+005
2.969828e+002, 4.150502e+005
2.970345e+002, 4.142148e+005
2.970862e+002, 4.136239e+005
2.971379e+002, 4.140721e+005
2.971897e+002, 4.134198e+005
2.972414e+002, 4.131024e+005
2.972931e+002, 4.124947e+005
2.973448e+002, 4.114228e+005
2.973965e+002, 4.105828e+005
2.974483e+002, 4.095955e+005
2.975000e+002, 4.084468e+005
2.975517e+002, 4.078815e+005
2.976035e+002, 4.071502e+005
2.976552e+002, 4.064782e+005
2.977069e+002, 4.072033e+005
2.977586e+002, 4.069151e+005
2.978104e+002, 4.057779e+005
2.978621e+002, 4.045265e+005
2.979138e+002, 4.038087e+005
2.979655e+002, 4.028437e+005
2.980172e+002, 4.022039e+005
2.980690e+002, 4.021055e+005
2.981207e+002, 4.020449e+005
2.981724e+002, 4.019258e+005
2.982242e+002, 4.006899e+005
2.982759e+002, 3.996063e+005
2.983276e+002, 3.992332e+005
2.983793e+002, 3.990703e+005
2.984310e+002, 3.986428e+005
2.984828e+002, 3.975563e+005
2.985345e+002, 3.964553e+005
2.985862e+002, 3.954407e+005
2.986379e+002, 3.946432e+005
2.986897e+002, 3.945405e+005
2.987414e+002, 3.934901e+005
2.987931e+002, 3.933046e+005
2.988448e+002, 3.929966e+005
2.988965e+002, 3.914961e+005
2.989483e+002, 3.899215e+005
2.990000e+002, 3.894698e+005
2.990517e+002, 3.894717e+005
2.991035e+002, 3.891741e+005
2.991552e+002, 3.881878e+005
2.992069e+002, 3.864439e+005
2.992586e+002, 3.857590e+005
2.993104e+002, 3.853033e+005
2.993621e+002, 3.850578e+005
2.994138e+002, 3.848666e+005
2.994655e+002, 3.838924e+005
2.995172e+002, 3.824980e+005
2.995690e+002, 3.818670e+005
2.996207e+002, 3.814334e+005
2.996724e+002, 3.809743e+005
2.997242e+002, 3.802672e+005
2.997759e+002, 3.792726e+005
2.998276e+002, 3.793186e+005
2.998793e+002, 3.786421e+005
2.999310e+002, 3.776381e+005
2.999828e+002, 3.764443e+005
3.000345e+002, 3.757215e+005
3.000862e+002, 3.754202e+005
3.001379e+002, 3.743999e+005
3.001897e+002, 3.726927e+005
3.002414e+002, 3.716938e+005
3.002931e+002, 3.705519e+005
3.003448e+002, 3.694363e+005
3.003965e+002, 3.684811e+005
3.004483e+002, 3.680176e+005
3.005000e+002, 3.673534e+005
3.005517e+002, 3.665397e+005
3.006035e+002, 3.659309e+005
3.006552e+002, 3.657427e+005
3.007069e+002, 3.645268e+005
3.007586e+002, 3.635868e+005
3.008104e+002, 3.634528e+005
3.008621e+002, 3.631650e+005
3.009138e+002, 3.614968e+005
3.009655e+002, 3.607423e+005
3.010172e+002, 3.600369e+005
3.010690e+002, 3.586184e+005
3.011207e+002, 3.576848e+005
3.011724e+002, 3.566750e+005
3.012242e+002, 3.554830e+005
3.012759e+002, 3.542927e+005
3.013276e+002, 3.527276e+005
3.013793e+002, 3.519409e+005
3.014310e+002, 3.523008e+005
3.014828e+002, 3.516177e+005
3.015345e+002, 3.502009e+005
3.015862e+002, 3.495465e+005
3.016379e+002, 3.487758e+005
3.016897e+002, 3.481332e+005
3.017414e+002, 3.476079e+005
3.017931e+002, 3.462260e+005
3.018448e+002, 3.452511e+005
3.018965e+002, 3.442627e+005
3.019483e+002, 3.433208e+005
3.020000e+002, 3.426542e+005
3.020517e+002, 3.423753e+005
3.021035e+002, 3.408860e+005
3.021552e+002, 3.397644e+005
3.022069e+002, 3.389380e+005
3.022586e+002, 3.380381e+005
3.023104e+002, 3.367351e+005
3.023621e+002, 3.362277e+005
3.024138e+002, 3.358153e+005
3.024655e+002, 3.354412e+005
3.025172e+002, 3.350401e+005
3.025690e+002, 3.340278e+005
3.026207e+002, 3.325946e+005
3.026724e+002, 3.315242e+005
3.027242e+002, 3.310073e+005
3.027759e+002, 3.296272e+005
3.028276e+002, 3.281628e+005
3.028793e+002, 3.269853e+005
3.029310e+002, 3.262553e+005
3.029828e+002, 3.260182e+005
3.030345e+002, 3.249776e+005
3.030862e+002, 3.232608e+005
3.031379e+002, 3.215026e+005
3.031897e+002, 3.210839e+005
3.032414e+002, 3.203961e+005
3.032931e+002, 3.202254e+005
3.033448e+002, 3.198825e+005
3.033965e+002, 3.187886e+005
3.034483e+002, 3.179274e+005
3.035000e+002, 3.170891e+005
3.035517e+002, 3.163980e+005
3.036035e+002, 3.153266e+005
3.036552e+002, 3.139458e+005
3.037069e+002, 3.133521e+005
3.037586e+002, 3.127778e+005
3.038104e+002, 3.116826e+005
3.038621e+002, 3.103703e+005
3.039138e+002, 3.097441e+005
3.039655e+002, 3.087653e+005
3.040172e+002, 3.081551e+005
3.040690e+002, 3.073266e+005
3.041207e+002, 3.066005e+005
3.041724e+002, 3.057434e+005
3.042242e+002, 3.051211e+005
3.042759e+002, 3.046289e+005
3.043276e+002, 3.041073e+005
3.043793e+002, 3.031531e+005
3.044310e+002, 3.022277e+005
3.044828e+002, 3.017258e+005
3.045345e+002, 3.008972e+005
3.045862e+002, 2.998042e+005
3.046379e+002, 2.988344e+005
3.046897e+002, 2.981829e+005
3.047414e+002, 2.974062e+005
3.047931e+002, 2.970542e+005
3.048448e+002, 2.969344e+005
3.048965e+002, 2.961224e+005
3.049483e+002, 2.946962e+005
3.050000e+002, 2.939352e+005
3.050517e+002, 2.936903e+005
3.051035e+002, 2.929325e+005
3.051552e+002, 2.926314e+005
3.052069e+002, 2.920717e+005
3.052586e+002, 2.906354e+005
3.053104e+002, 2.893784e+005
3.053621e+002, 2.885207e+005
3.054138e+002, 2.877483e+005
3.054655e+002, 2.875227e+005
3.055172e+002, 2.870806e+005
3.055690e+002, 2.861692e+005
3.056207e+002, 2.853640e+005
3.056724e+002, 2.851758e+005
3.057242e+002, 2.849958e+005
3.057759e+002, 2.845511e+005
3.058276e+002, 2.838787e+005
3.058793e+002, 2.827278e+005
3.059310e+002, 2.819311e+005
3.059828e+002, 2.815339e+005
3.060345e+002, 2.806040e+005
3.060862e+002, 2.800071e+005
3.061379e+002, 2.791165e+005
3.061897e+002, 2.781971e+005
3.062414e+002, 2.778246e+005
3.062931e+002, 2.769393e+005
3.063448e+002, 2.765538e+005
3.063965e+002, 2.763787e+005
3.064483e+002, 2.758839e+005
3.065000e+002, 2.753682e+005
3.065517e+002, 2.748542e+005
3.066035e+002, 2.745198e+005
3.066552e+002, 2.741713e+005
3.067069e+002, 2.744336e+005
3.067586e+002, 2.734446e+005
3.068104e+002, 2.730345e+005
3.068621e+002, 2.718740e+005
3.069138e+002, 2.706488e+005
3.069655e+002, 2.699740e+005
3.070172e+002, 2.699463e+005
3.070690e+002, 2.691811e+005
3.071207e+002, 2.690013e+005
3.071724e+002, 2.686234e+005
3.072242e+002, 2.687778e+005
3.072759e+002, 2.680416e+005
3.073276e+002, 2.674413e+005
3.073793e+002, 2.669048e+005
3.074310e+002, 2.664036e+005
3.074828e+002, 2.659014e+005
3.075345e+002, 2.658961e+005
3.075862e+002, 2.656644e+005
3.076379e+002, 2.654502e+005
3.076897e+002, 2.646357e+005
3.077414e+002, 2.637349e+005
3.077931e+002, 2.635734e+005
3.078448e+002, 2.636631e+005
3.078965e+002, 2.631282e+005
3.079483e+002, 2.627501e+005
3.080000e+002, 2.623791e+005
3.080517e+002, 2.612679e+005
3.081035e+002, 2.607261e+005
3.081552e+002, 2.604082e+005
3.082069e+002, 2.598686e+005
3.082586e+002, 2.595412e+005
3.083104e+002, 2.595277e+005
3.083621e+002, 2.588523e+005
3.084138e+002, 2.580351e+005
3.084655e+002, 2.578781e+005
3.085172e+002, 2.576410e+005
3.085690e+002, 2.579497e+005
3.086207e+002, 2.577921e+005
3.086724e+002, 2.572851e+005
3.087242e+002, 2.568588e+005
3.087759e+002, 2.565597e+005
3.088276e+002, 2.566817e+005
3.088793e+002, 2.566693e+005
3.089310e+002, 2.565495e+005
3.089828e+002, 2.556380e+005
3.090345e+002, 2.553769e+005
3.090862e+002, 2.549157e+005
3.091379e+002, 2.543529e+005
3.091897e+002, 2.538345e+005
3.092414e+002, 2.542125e+005
3.092931e+002, 2.539635e+005
3.093448e+002, 2.535586e+005
3.093965e+002, 2.530354e+005
3.094483e+002, 2.527955e+005
3.095000e+002, 2.524590e+005
3.095517e+002, 2.525631e+005
3.096035e+002, 2.521026e+005
3.096552e+002, 2.522631e+005
3.097069e+002, 2.523116e+005
3.097586e+002, 2.518275e+005
3.098104e+002, 2.516058e+005
3.098621e+002, 2.514692e+005
3.099138e+002, 2.510853e+005
3.099655e+002, 2.507470e+005
3.100172e+002, 2.502806e+005
3.100690e+002, 2.494655e+005
3.101207e+002, 2.491619e+005
3.101724e+002, 2.495241e+005
3.102242e+002, 2.496632e+005
3.102759e+002, 2.499076e+005
3.103276e+002, 2.489235e+005
3.103793e+002, 2.489716e+005
3.104310e+002, 2.497573e+005
3.104828e+002, 2.488934e+005
3.105345e+002, 2.477734e+005
3.105862e+002, 2.473855e+005
3.106379e+002, 2.473016e+005
3.106897e+002, 2.472247e+005
3.107414e+002, 2.471276e+005
3.107931e+002, 2.472963e+005
3.108448e+002, 2.475465e+005
3.108965e+002, 2.478503e+005
3.109483e+002, 2.481120e+005
3.110000e+002, 2.476655e+005
3.110517e+002, 2.471078e+005
3.111035e+002, 2.469866e+005
3.111552e+002, 2.466246e+005
3.112069e+002, 2.472545e+005
3.112586e+002, 2.473484e+005
3.113104e+002, 2.467527e+005
3.113621e+002, 2.461031e+005
3.114138e+002, 2.462057e+005
3.114655e+002, 2.452972e+005
3.115172e+002, 2.453101e+005
3.115690e+002, 2.446437e+005
3.116207e+002, 2.449849e+005
3.116724e+002, 2.452203e+005
3.117242e+002, 2.450310e+005
3.117759e+002, 2.444393e+005
3.118276e+002, 2.445820e+005
3.118793e+002, 2.442978e+005
3.119310e+002, 2.443694e+005
3.119828e+002, 2.446083e+005
3.120345e+002, 2.446798e+005
3.120862e+002, 2.439623e+005
3.121379e+002, 2.436710e+005
3.121897e+002, 2.438217e+005
3.122414e+002, 2.438046e+005
3.122931e+002, 2.438836e+005
3.123448e+002, 2.438070e+005
3.123965e+002, 2.428420e+005
3.124483e+002, 2.425438e+005
3.125000e+002, 2.424033e+005
3.125517e+002, 2.426027e+005
3.126035e+002, 2.430477e+005
3.126552e+002, 2.430983e+005
3.127069e+002, 2.425887e+005
3.127586e+002, 2.424938e+005
3.128104e+002, 2.424133e+005
3.128621e+002, 2.424244e+005
3.129138e+002, 2.426775e+005
3.129655e+002, 2.424039e+005
3.130172e+002, 2.423683e+005
3.130690e+002, 2.419884e+005
3.131207e+002, 2.418778e+005
3.131724e+002, 2.419187e+005
3.132242e+002, 2.420653e+005
3.132759e+002, 2.422763e+005
3.133276e+002, 2.420939e+005
3.133793e+002, 2.417766e+005
3.134310e+002, 2.417374e+005
3.134828e+002, 2.411003e+005
3.135345e+002, 2.410149e+005
3.135862e+002, 2.408678e+005
3.136379e+002, 2.407448e+005
3.136897e+002, 2.402806e+005
3.137414e+002, 2.401496e+005
3.137931e+002, 2.401202e+005
3.138448e+002, 2.404574e+005
3.138965e+002, 2.405939e+005
3.139483e+002, 2.403481e+005
3.140000e+002, 2.400661e+005
3.140517e+002, 2.400413e+005
3.141035e+002, 2.402240e+005
3.141552e+002, 2.399898e+005
3.142069e+002, 2.399805e+005
3.142586e+002, 2.398093e+005
3.143104e+002, 2.393496e+005
3.143621e+002, 2.396111e+005
3.144138e+002, 2.399128e+005
3.144655e+002, 2.400158e+005
3.145172e+002, 2.398587e+005
3.145690e+002, 2.388562e+005
3.146207e+002, 2.388015e+005
3.146724e+002, 2.396281e+005
3.147242e+002, 2.392965e+005
3.147759e+002, 2.387583e+005
3.148276e+002, 2.385751e+005
3.148793e+002, 2.382632e+005
3.149310e+002, 2.383869e+005
3.149828e+002, 2.390629e+005
3.150345e+002, 2.393791e+005
3.150862e+002, 2.390651e+005
3.151379e+002, 2.390629e+005
3.151897e+002, 2.386537e+005
3.152414e+002, 2.386421e+005
3.152931e+002, 2.383200e+005
3.153448e+002, 2.379133e+005
3.153965e+002, 2.377950e+005
3.154483e+002, 2.377921e+005
3.155000e+002, 2.379357e+005
3.155517e+002, 2.381378e+005
3.156035e+002, 2.382588e+005
3.156552e+002, 2.383670e+005
3.157069e+002, 2.379584e+005
3.157586e+002, 2.378006e+005
3.158104e+002, 2.374345e+005
3.158621e+002, 2.375496e+005
3.159138e+002, 2.376924e+005
3.159655e+002, 2.374227e+005
3.160172e+002, 2.378473e+005
3.160690e+002, 2.383595e+005
3.161207e+002, 2.379422e+005
3.161724e+002, 2.373387e+005
3.162242e+002, 2.373205e+005
3.162759e+002, 2.369271e+005
3.163276e+002, 2.369245e+005
3.163793e+002, 2.368477e+005
3.164310e+002, 2.373504e+005
3.164828e+002, 2.378476e+005
3.165345e+002, 2.380201e+005
3.165862e+002, 2.374642e+005
3.166379e+002, 2.369812e+005
3.166897e+002, 2.368832e+005
3.167414e+002, 2.363667e+005
3.167931e+002, 2.367954e+005
3.168448e+002, 2.362558e+005
3.168965e+002, 2.361108e+005
3.169483e+002, 2.363804e+005
3.170000e+002, 2.364975e+005
3.170517e+002, 2.362419e+005
3.171035e+002, 2.365853e+005
3.171552e+002, 2.363701e+005
3.172069e+002, 2.364105e+005
3.172586e+002, 2.366299e+005
3.173104e+002, 2.367289e+005
3.173621e+002, 2.366016e+005
3.174138e+002, 2.369705e+005
3.174655e+002, 2.369736e+005
3.175172e+002, 2.365857e+005
3.175690e+002, 2.365054e+005
3.176207e+002, 2.363198e+005
3.176724e+002, 2.358842e+005
3.177242e+002, 2.361638e+005
3.177759e+002, 2.362155e+005
3.178276e+002, 2.365236e+005
3.178793e+002, 2.362486e+005
3.179310e+002, 2.361348e+005
3.179828e+002, 2.359371e+005
3.180345e+002, 2.360831e+005
3.180862e+002, 2.360069e+005
3.181379e+002, 2.355497e+005
3.181897e+002, 2.356953e+005
3.182414e+002, 2.353309e+005
3.182931e+002, 2.356885e+005
3.183448e+002, 2.357903e+005
3.183965e+002, 2.361351e+005
3.184483e+002, 2.355510e+005
3.185000e+002, 2.356260e+005
3.185517e+002, 2.363662e+005
3.186035e+002, 2.362050e+005
3.186552e+002, 2.358402e+005
3.187069e+002, 2.360316e+005
3.187586e+002, 2.358465e+005
3.188104e+002, 2.356075e+005
3.188621e+002, 2.357455e+005
3.189138e+002, 2.356474e+005
3.189655e+002, 2.353182e+005
3.190172e+002, 2.349080e+005
3.190690e+002, 2.349353e+005
3.191207e+002, 2.356540e+005
3.191724e+002, 2.360922e+005
3.192242e+002, 2.356746e+005
3.192759e+002, 2.353427e+005
3.193276e+002, 2.350028e+005
3.193793e+002, 2.348661e+005
3.194310e+002, 2.350300e+005
3.194828e+002, 2.352325e+005
3.195345e+002, 2.351996e+005
3.195862e+002, 2.353293e+005
3.196379e+002, 2.352887e+005
3.196897e+002, 2.345638e+005
3.197414e+002, 2.342458e+005
3.197931e+002, 2.347117e+005
3.198448e+002, 2.346982e+005
3.198965e+002, 2.349508e+005
3.199483e+002, 2.352109e+005
3.200000e+002, 2.352902e+005
3.200517e+002, 2.351546e+005
3.201035e+002, 2.346721e+005
3.201552e+002, 2.342510e+005
3.202069e+002, 2.348183e+005
3.202586e+002, 2.348633e+005
3.203104e+002, 2.342408e+005
3.203621e+002, 2.335255e+005
3.204138e+002, 2.336930e+005
3.204655e+002, 2.334358e+005
3.205172e+002, 2.332825e+005
3.205690e+002, 2.337060e+005
3.206207e+002, 2.339628e+005
3.206724e+002, 2.346558e+005
3.207242e+002, 2.342974e+005
3.207759e+002, 2.345850e+005
3.208276e+002, 2.351935e+005
3.208793e+002, 2.350865e+005
3.209310e+002, 2.351756e+005
3.209828e+002, 2.344666e+005
3.210345e+002, 2.342896e+005
3.210862e+002, 2.337757e+005
3.211379e+002, 2.338813e+005
3.211897e+002, 2.339046e+005
3.212414e+002, 2.339066e+005
3.212931e+002, 2.336846e+005
3.213448e+002, 2.339416e+005
3.213965e+002, 2.339340e+005
3.214483e+002, 2.335591e+005
3.215000e+002, 2.338377e+005
3.215517e+002, 2.334658e+005
3.216035e+002, 2.334658e+005
3.216552e+002, 2.334425e+005
3.217069e+002, 2.330142e+005
3.217586e+002, 2.329197e+005
3.218104e+002, 2.327453e+005
3.218621e+002, 2.330081e+005
3.219138e+002, 2.331747e+005
3.219655e+002, 2.322267e+005
3.220172e+002, 2.322480e+005
3.220690e+002, 2.322713e+005
3.221207e+002, 2.325945e+005
3.221724e+002, 2.325575e+005
3.222242e+002, 2.326045e+005
3.222759e+002, 2.326266e+005
3.223276e+002, 2.327654e+005
3.223793e+002, 2.327307e+005
3.224310e+002, 2.323603e+005
3.224828e+002, 2.324935e+005
3.225345e+002, 2.326317e+005
3.225862e+002, 2.321833e+005
3.226379e+002, 2.315793e+005
3.226897e+002, 2.316288e+005
3.227414e+002, 2.321378e+005
3.227931e+002, 2.318983e+005
3.228448e+002, 2.312377e+005
3.228965e+002, 2.317607e+005
3.229483e+002, 2.318010e+005
3.230000e+002, 2.320074e+005
3.230517e+002, 2.320252e+005
3.231035e+002, 2.309944e+005
3.231552e+002, 2.310730e+005
3.232069e+002, 2.308061e+005
3.232586e+002, 2.311104e+005
3.233104e+002, 2.309577e+005
3.233621e+002, 2.305279e+005
3.234138e+002, 2.306225e+005
3.234655e+002, 2.305024e+005
3.235172e+002, 2.305639e+005
3.235690e+002, 2.305729e+005
3.236207e+002, 2.302076e+005
3.236724e+002, 2.303305e+005
3.237242e+002, 2.301903e+005
3.237759e+002, 2.296414e+005
3.238276e+002, 2.296238e+005
3.238793e+002, 2.295834e+005
3.239310e+002, 2.298208e+005
3.239828e+002, 2.299270e+005
3.240345e+002, 2.299365e+005
3.240862e+002, 2.296553e+005
3.241379e+002, 2.289788e+005
3.241897e+002, 2.283444e+005
3.242414e+002, 2.283979e+005
3.242931e+002, 2.282575e+005
3.243448e+002, 2.281337e+005
3.243965e+002, 2.284697e+005
3.244483e+002, 2.290208e+005
3.245000e+002, 2.285189e+005
3.245517e+002, 2.278897e+005
3.246035e+002, 2.280160e+005
3.246552e+002, 2.276020e+005
3.247069e+002, 2.278003e+005
3.247586e+002, 2.273981e+005
3.248104e+002, 2.275628e+005
3.248621e+002, 2.273001e+005
3.249138e+002, 2.275518e+005
3.249655e+002, 2.269081e+005
3.250172e+002, 2.269305e+005
3.250690e+002, 2.271832e+005
3.251207e+002, 2.271237e+005
3.251724e+002, 2.275894e+005
3.252242e+002, 2.270804e+005
3.252759e+002, 2.263351e+005
3.253276e+002, 2.259023e+005
3.253793e+002, 2.257774e+005
3.254310e+002, 2.262602e+005
3.254828e+002, 2.263555e+005
3.255345e+002, 2.262557e+005
3.255862e+002, 2.258572e+005
3.256379e+002, 2.257988e+005
3.256897e+002, 2.259629e+005
3.257414e+002, 2.257253e+005
3.257931e+002, 2.253528e+005
3.258448e+002, 2.254748e+005
3.258965e+002, 2.254073e+005
3.259483e+002, 2.250944e+005
3.260000e+002, 2.249644e+005
3.260517e+002, 2.251271e+005
3.261035e+002, 2.247264e+005
3.261552e+002, 2.238906e+005
3.262069e+002, 2.236175e+005
3.262586e+002, 2.238584e+005
3.263104e+002, 2.239040e+005
3.263621e+002, 2.233623e+005
3.264138e+002, 2.237899e+005
3.264655e+002, 2.239279e+005
3.265172e+002, 2.233324e+005
3.265690e+002, 2.232177e+005
3.266207e+002, 2.232742e+005
3.266724e+002, 2.233240e+005
3.267242e+002, 2.236298e+005
3.267759e+002, 2.236063e+005
3.268276e+002, 2.226284e+005
3.268793e+002, 2.220364e+005
3.269310e+002, 2.219820e+005
3.269828e+002, 2.219542e+005
3.270345e+002, 2.228403e+005
3.270862e+002, 2.228482e+005
3.271379e+002, 2.219924e+005
3.271897e+002, 2.211407e+005
3.272414e+002, 2.212575e+005
3.272931e+002, 2.205434e+005
3.273448e+002, 2.197957e+005
3.273965e+002, 2.198354e+005
3.274483e+002, 2.204270e+005
3.275000e+002, 2.207933e+005
3.275517e+002, 2.206748e+005
3.276035e+002, 2.204338e+005
3.276552e+002, 2.206661e+005
3.277069e+002, 2.208518e+005
3.277586e+002, 2.202480e+005
3.278104e+002, 2.200469e+005
3.278621e+002, 2.198639e+005
3.279138e+002, 2.193063e+005
3.279655e+002, 2.191985e+005
3.280172e+002, 2.188003e+005
3.280690e+002, 2.187625e+005
3.281207e+002, 2.185499e+005
3.281724e+002, 2.183985e+005
3.282242e+002, 2.181180e+005
3.282759e+002, 2.179624e+005
3.283276e+002, 2.178626e+005
3.283793e+002, 2.182394e+005
3.284310e+002, 2.181517e+005
3.284828e+002, 2.176642e+005
3.285345e+002, 2.176354e+005
3.285862e+002, 2.178613e+005
3.286379e+002, 2.176509e+005
3.286897e+002, 2.170496e+005
3.287414e+002, 2.172158e+005
3.287931e+002, 2.169846e+005
3.288448e+002, 2.167195e+005
3.288965e+002, 2.164218e+005
3.289483e+002, 2.165383e+005
3.290000e+002, 2.163406e+005
3.290517e+002, 2.162038e+005
3.291035e+002, 2.163012e+005
3.291552e+002, 2.160768e+005
3.292069e+002, 2.154349e+005
3.292586e+002, 2.151114e+005
3.293104e+002, 2.152163e+005
3.293621e+002, 2.151254e+005
3.294138e+002, 2.153004e+005
3.294655e+002, 2.147918e+005
3.295172e+002, 2.142043e+005
3.295690e+002, 2.144103e+005
3.296207e+002, 2.142783e+005
3.296724e+002, 2.145442e+005
3.297242e+002, 2.146959e+005
3.297759e+002, 2.140494e+005
3.298276e+002, 2.138703e+005
3.298793e+002, 2.137416e+005
3.299310e+002, 2.136071e+005
3.299828e+002, 2.133684e+005
3.300345e+002, 2.132755e+005
3.300862e+002, 2.134984e+005
3.301379e+002, 2.132749e+005
3.301897e+002, 2.125890e+005
3.302414e+002, 2.121914e+005
3.302931e+002, 2.120598e+005
3.303448e+002, 2.121210e+005
3.303965e+002, 2.116635e+005
3.304483e+002, 2.121090e+005
3.305000e+002, 2.116201e+005
3.305517e+002, 2.111214e+005
3.306035e+002, 2.110499e+005
3.306552e+002, 2.105858e+005
3.307069e+002, 2.103621e+005
3.307586e+002, 2.098419e+005
3.308104e+002, 2.102482e+005
3.308621e+002, 2.104043e+005
3.309138e+002, 2.097405e+005
3.309655e+002, 2.095407e+005
3.310172e+002, 2.100952e+005
3.310690e+002, 2.098675e+005
3.311207e+002, 2.100110e+005
3.311724e+002, 2.098636e+005
3.312242e+002, 2.095490e+005
3.312759e+002, 2.092358e+005
3.313276e+002, 2.088063e+005
3.313793e+002, 2.085001e+005
3.314310e+002, 2.084018e+005
3.314828e+002, 2.083622e+005
3.315345e+002, 2.079670e+005
3.315862e+002, 2.080647e+005
3.316379e+002, 2.076119e+005
3.316897e+002, 2.075718e+005
3.317414e+002, 2.078437e+005
3.317931e+002, 2.072152e+005
3.318448e+002, 2.069492e+005
3.318965e+002, 2.073590e+005
3.319483e+002, 2.070709e+005
3.320000e+002, 2.070473e+005
3.320517e+002, 2.066762e+005
3.321035e+002, 2.069226e+005
3.321552e+002, 2.068454e+005
3.322069e+002, 2.064288e+005
3.322586e+002, 2.059280e+005
3.323104e+002, 2.057720e+005
3.323621e+002, 2.051711e+005
3.324138e+002, 2.047218e+005
3.324655e+002, 2.051645e+005
3.325172e+002, 2.055083e+005
3.325690e+002, 2.047908e+005
3.326207e+002, 2.043137e+005
3.326724e+002, 2.046127e+005
3.327242e+002, 2.049255e+005
3.327759e+002, 2.050771e+005
3.328276e+002, 2.044909e+005
3.328793e+002, 2.043912e+005
3.329310e+002, 2.044648e+005
3.329828e+002, 2.036983e+005
3.330345e+002, 2.030912e+005
3.330862e+002, 2.031911e+005
3.331379e+002, 2.035839e+005
3.331897e+002, 2.034779e+005
3.332414e+002, 2.034749e+005
3.332931e+002, 2.029180e+005
3.333448e+002, 2.026049e+005
3.333965e+002, 2.027146e+005
3.334483e+002, 2.027143e+005
3.335000e+002, 2.026178e+005
3.335517e+002, 2.026307e+005
3.336035e+002, 2.021073e+005
3.336552e+002, 2.017273e+005
3.337069e+002, 2.014458e+005
3.337586e+002, 2.010826e+005
3.338104e+002, 2.007093e+005
3.338621e+002, 2.009728e+005
3.339138e+002, 2.011575e+005
3.339655e+002, 2.008564e+005
3.340172e+002, 2.005990e+005
3.340690e+002, 2.001773e+005
3.341207e+002, 2.000577e+005
3.341724e+002, 2.005124e+005
3.342242e+002, 2.005286e+005
3.342759e+002, 2.001613e+005
3.343276e+002, 1.997861e+005
3.343793e+002, 2.004679e+005
3.344310e+002, 2.002249e+005
3.344828e+002, 1.991925e+005
3.345345e+002, 1.991829e+005
3.345862e+002, 1.991491e+005
3.346379e+002, 1.989211e+005
3.346897e+002, 1.990455e+005
3.347414e+002, 1.990453e+005
3.347931e+002, 1.992640e+005
3.348448e+002, 1.991296e+005
3.348965e+002, 1.987604e+005
3.349483e+002, 1.980840e+005
3.350000e+002, 1.979784e+005
3.350517e+002, 1.976645e+005
3.351035e+002, 1.980550e+005
3.351552e+002, 1.981170e+005
3.352069e+002, 1.980464e+005
3.352586e+002, 1.975567e+005
3.353104e+002, 1.976745e+005
3.353621e+002, 1.981204e+005
3.354138e+002, 1.981038e+005
3.354655e+002, 1.977837e+005
3.355172e+002, 1.969031e+005
3.355690e+002, 1.968149e+005
3.356207e+002, 1.964922e+005
3.356724e+002, 1.964447e+005
3.357242e+002, 1.965979e+005
3.357759e+002, 1.967528e+005
3.358276e+002, 1.963212e+005
3.358793e+002, 1.961598e+005
3.359310e+002, 1.961341e+005
3.359828e+002, 1.957360e+005
3.360345e+002, 1.952569e+005
3.360862e+002, 1.953760e+005
3.361379e+002, 1.950507e+005
3.361897e+002, 1.952310e+005
3.362414e+002, 1.952849e+005
3.362931e+002, 1.952059e+005
3.363448e+002, 1.949161e+005
3.363965e+002, 1.946673e+005
3.364483e+002, 1.945685e+005
3.365000e+002, 1.943694e+005
3.365517e+002, 1.938572e+005
3.366035e+002, 1.930907e+005
3.366552e+002, 1.936040e+005
3.367069e+002, 1.937558e+005
3.367586e+002, 1.932409e+005
3.368104e+002, 1.934077e+005
3.368621e+002, 1.935007e+005
3.369138e+002, 1.932950e+005
3.369655e+002, 1.928978e+005
3.370172e+002, 1.928534e+005
3.370690e+002, 1.930183e+005
3.371207e+002, 1.933831e+005
3.371724e+002, 1.931450e+005
3.372242e+002, 1.921978e+005
3.372759e+002, 1.920220e+005
3.373276e+002, 1.923368e+005
3.373793e+002, 1.926418e+005
3.374310e+002, 1.923558e+005
3.374828e+002, 1.922238e+005
3.375345e+002, 1.924242e+005
3.375862e+002, 1.921314e+005
3.376379e+002, 1.921134e+005
3.376897e+002, 1.921613e+005
3.377414e+002, 1.918751e+005
3.377931e+002, 1.917237e+005
3.378448e+002, 1.914973e+005
3.378965e+002, 1.909321e+005
3.379483e+002, 1.906475e+005
3.380000e+002, 1.904344e+005
3.380517e+002, 1.904886e+005
3.381035e+002, 1.905230e+005
3.381552e+002, 1.899344e+005
3.382069e+002, 1.902362e+005
3.382586e+002, 1.904470e+005
3.383104e+002, 1.903269e+005
3.383621e+002, 1.904870e+005
3.384138e+002, 1.905675e+005
3.384655e+002, 1.898871e+005
3.385172e+002, 1.899074e+005
3.385690e+002, 1.898744e+005
3.386207e+002, 1.892485e+005
3.386724e+002, 1.890753e+005
3.387242e+002, 1.892859e+005
3.387759e+002, 1.889779e+005
3.388276e+002, 1.888152e+005
3.388793e+002, 1.889834e+005
3.389310e+002, 1.887758e+005
3.389828e+002, 1.887713e+005
3.390345e+002, 1.885796e+005
3.390862e+002, 1.889297e+005
3.391379e+002, 1.886352e+005
3.391897e+002, 1.886114e+005
3.392414e+002, 1.888855e+005
3.392931e+002, 1.890559e+005
3.393448e+002, 1.887450e+005
3.393965e+002, 1.883611e+005
3.394483e+002, 1.881362e+005
3.395000e+002, 1.882840e+005
3.395517e+002, 1.881980e+005
3.396035e+002, 1.878394e+005
3.396552e+002, 1.874762e+005
3.397069e+002, 1.873711e+005
3.397586e+002, 1.874492e+005
3.398104e+002, 1.870229e+005
3.398621e+002, 1.871495e+005
3.399138e+002, 1.878637e+005
3.399655e+002, 1.877226e+005
3.400172e+002, 1.874341e+005
3.400690e+002, 1.875338e+005
3.401207e+002, 1.875403e+005
3.401724e+002, 1.868529e+005
3.402242e+002, 1.869459e+005
3.402759e+002, 1.869735e+005
3.403276e+002, 1.864018e+005
3.403793e+002, 1.864702e+005
3.404310e+002, 1.865900e+005
3.404828e+002, 1.865180e+005
3.405345e+002, 1.865161e+005
3.405862e+002, 1.862886e+005
3.406379e+002, 1.862541e+005
3.406897e+002, 1.862896e+005
3.407414e+002, 1.862042e+005
3.407931e+002, 1.857461e+005
3.408448e+002, 1.854540e+005
3.408965e+002, 1.849023e+005
3.409483e+002, 1.851729e+005
3.410000e+002, 1.849909e+005
3.410517e+002, 1.852235e+005
3.411035e+002, 1.848334e+005
3.411552e+002, 1.847929e+005
3.412069e+002, 1.852594e+005
3.412586e+002, 1.853247e+005
3.413104e+002, 1.848459e+005
3.413621e+002, 1.844165e+005
3.414138e+002, 1.840668e+005
3.414655e+002, 1.843192e+005
3.415172e+002, 1.843537e+005
3.415690e+002, 1.843251e+005
3.416207e+002, 1.849916e+005
3.416724e+002, 1.846522e+005
3.417242e+002, 1.841759e+005
3.417759e+002, 1.840170e+005
3.418276e+002, 1.840248e+005
3.418793e+002, 1.839657e+005
3.419310e+002, 1.841867e+005
3.419828e+002, 1.843631e+005
3.420345e+002, 1.837670e+005
3.420862e+002, 1.833085e+005
3.421379e+002, 1.834202e+005
3.421897e+002, 1.831453e+005
3.422414e+002, 1.830207e+005
3.422931e+002, 1.832398e+005
3.423448e+002, 1.834532e+005
3.423965e+002, 1.833849e+005
3.424483e+002, 1.835192e+005
3.425000e+002, 1.831669e+005
3.425517e+002, 1.829027e+005
3.426035e+002, 1.827813e+005
3.426552e+002, 1.825426e+005
3.427069e+002, 1.822767e+005
3.427586e+002, 1.820683e+005
3.428104e+002, 1.820409e+005
3.428621e+002, 1.820565e+005
3.429138e+002, 1.822585e+005
3.429655e+002, 1.820543e+005
3.430172e+002, 1.820888e+005
3.430690e+002, 1.825714e+005
3.431207e+002, 1.822808e+005
3.431724e+002, 1.820880e+005
3.432242e+002, 1.819274e+005
3.432759e+002, 1.818775e+005
3.433276e+002, 1.817535e+005
3.433793e+002, 1.814393e+005
3.434310e+002, 1.811509e+005
3.434828e+002, 1.811170e+005
3.435345e+002, 1.810336e+005
3.435862e+002, 1.810694e+005
3.436379e+002, 1.809651e+005
3.436897e+002, 1.806736e+005
3.437414e+002, 1.810983e+005
3.437931e+002, 1.813351e+005
3.438448e+002, 1.815647e+005
3.438965e+002, 1.819893e+005
3.439483e+002, 1.815526e+005
3.440000e+002, 1.812678e+005
3.440517e+002, 1.807590e+005
3.441035e+002, 1.804779e+005
3.441552e+002, 1.801771e+005
3.442069e+002, 1.800088e+005
3.442586e+002, 1.800395e+005
3.443104e+002, 1.801455e+005
3.443621e+002, 1.801081e+005
3.444138e+002, 1.803517e+005
3.444655e+002, 1.803728e+005
3.445172e+002, 1.802132e+005
3.445690e+002, 1.804088e+005
3.446207e+002, 1.799309e+005
3.446724e+002, 1.794067e+005
3.447242e+002, 1.796863e+005
3.447759e+002, 1.798118e+005
3.448276e+002, 1.797812e+005
3.448793e+002, 1.800457e+005
3.449310e+002, 1.796869e+005
3.449828e+002, 1.798056e+005
3.450345e+002, 1.799013e+005
3.450862e+002, 1.803322e+005
3.451379e+002, 1.801788e+005
3.451897e+002, 1.797077e+005
3.452414e+002, 1.793363e+005
3.452931e+002, 1.793617e+005
3.453448e+002, 1.796235e+005
3.453965e+002, 1.795973e+005
3.454483e+002, 1.789173e+005
3.455000e+002, 1.784548e+005
3.455517e+002, 1.784104e+005
3.456035e+002, 1.776888e+005
3.456552e+002, 1.779050e+005
3.457069e+002, 1.784457e+005
3.457586e+002, 1.785185e+005
3.458104e+002, 1.791532e+005
3.458621e+002, 1.791655e+005
3.459138e+002, 1.790419e+005
3.459655e+002, 1.790965e+005
3.460172e+002, 1.790400e+005
3.460690e+002, 1.787243e+005
3.461207e+002, 1.788287e+005
3.461724e+002, 1.784399e+005
3.462242e+002, 1.783636e+005
3.462759e+002, 1.787699e+005
3.463276e+002, 1.787590e+005
3.463793e+002, 1.789644e+005
3.464310e+002, 1.791995e+005
3.464828e+002, 1.791285e+005
3.465345e+002, 1.788378e+005
3.465862e+002, 1.783118e+005
3.466379e+002, 1.784763e+005
3.466897e+002, 1.785802e+005
3.467414e+002, 1.785455e+005
3.467931e+002, 1.782465e+005
3.468448e+002, 1.785136e+005
3.468965e+002, 1.784601e+005
3.469483e+002, 1.783404e+005
3.470000e+002, 1.781393e+005
3.470517e+002, 1.782310e+005
3.471035e+002, 1.782294e+005
3.471552e+002, 1.783730e+005
3.472069e+002, 1.778960e+005
3.472586e+002, 1.780642e+005
3.473104e+002, 1.781764e+005
3.473621e+002, 1.783639e+005
3.474138e+002, 1.780407e+005
3.474655e+002, 1.777156e+005
3.475172e+002, 1.780778e+005
3.475690e+002, 1.781190e+005
3.476207e+002, 1.775786e+005
3.476724e+002, 1.775628e+005
3.477242e+002, 1.776354e+005
3.477759e+002, 1.775607e+005
3.478276e+002, 1.774247e+005
3.478793e+002, 1.772803e+005
3.479310e+002, 1.767154e+005
3.479828e+002, 1.767423e+005
3.480345e+002, 1.762582e+005
3.480862e+002, 1.760119e+005
3.481379e+002, 1.765563e+005
3.481897e+002, 1.767513e+005
3.482414e+002, 1.762569e+005
3.482931e+002, 1.759300e+005
3.483448e+002, 1.757589e+005
3.483965e+002, 1.755989e+005
3.484483e+002, 1.758102e+005
3.485000e+002, 1.756161e+005
3.485517e+002, 1.753052e+005
3.486035e+002, 1.748394e+005
3.486552e+002, 1.751047e+005
3.487069e+002, 1.750606e+005
3.487586e+002, 1.751010e+005
3.488104e+002, 1.753537e+005
3.488621e+002, 1.751559e+005
3.489138e+002, 1.753510e+005
3.489655e+002, 1.751273e+005
3.490172e+002, 1.747999e+005
3.490690e+002, 1.750285e+005
3.491207e+002, 1.751578e+005
3.491724e+002, 1.750725e+005
3.492242e+002, 1.751193e+005
3.492759e+002, 1.753832e+005
3.493276e+002, 1.750550e+005
3.493793e+002, 1.749652e+005
3.494310e+002, 1.748148e+005
3.494828e+002, 1.746132e+005
3.495345e+002, 1.743429e+005
3.495862e+002, 1.745283e+005
3.496379e+002, 1.747055e+005
3.496897e+002, 1.744569e+005
3.497414e+002, 1.739064e+005
3.497931e+002, 1.742291e+005
3.498448e+002, 1.745523e+005
3.498965e+002, 1.749735e+005
3.499483e+002, 1.752125e+005
3.500000e+002, 1.746013e+005
3.500517e+002, 1.748028e+005
3.501035e+002, 1.747074e+005
3.501552e+002, 1.748001e+005
3.502069e+002, 1.748428e+005
3.502586e+002, 1.744870e+005
3.503104e+002, 1.745489e+005
3.503621e+002, 1.745991e+005
3.504138e+002, 1.742648e+005
3.504655e+002, 1.744883e+005
3.505172e+002, 1.748966e+005
3.505690e+002, 1.747137e+005
3.506207e+002, 1.752295e+005
3.506724e+002, 1.750707e+005
3.507242e+002, 1.745125e+005
3.507759e+002, 1.745182e+005
3.508276e+002, 1.744216e+005
3.508793e+002, 1.743315e+005
3.509310e+002, 1.745417e+005
3.509828e+002, 1.739899e+005
3.510345e+002, 1.736255e+005
3.510862e+002, 1.732917e+005
3.511379e+002, 1.737452e+005
3.511897e+002, 1.732738e+005
3.512414e+002, 1.731189e+005
3.512931e+002, 1.733403e+005
3.513448e+002, 1.731310e+005
3.513965e+002, 1.733622e+005
3.514483e+002, 1.734178e+005
3.515000e+002, 1.728419e+005
3.515517e+002, 1.723781e+005
3.516035e+002, 1.722367e+005
3.516552e+002, 1.721925e+005
3.517069e+002, 1.717409e+005
3.517586e+002, 1.716939e+005
3.518104e+002, 1.713147e+005
3.518621e+002, 1.711470e+005
3.519138e+002, 1.715289e+005
3.519655e+002, 1.716475e+005
3.520172e+002, 1.717193e+005
3.520690e+002, 1.716864e+005
3.521207e+002, 1.712914e+005
3.521724e+002, 1.711310e+005
3.522242e+002, 1.708030e+005
3.522759e+002, 1.704496e+005
3.523276e+002, 1.709808e+005
3.523793e+002, 1.707592e+005
3.524310e+002, 1.705051e+005
3.524828e+002, 1.706579e+005
3.525345e+002, 1.707985e+005
3.525862e+002, 1.704424e+005
3.526379e+002, 1.706916e+005
3.526897e+002, 1.706459e+005
3.527414e+002, 1.707456e+005
3.527931e+002, 1.704068e+005
3.528448e+002, 1.701065e+005
3.528965e+002, 1.702677e+005
3.529483e+002, 1.706026e+005
3.530000e+002, 1.702461e+005
3.530517e+002, 1.698368e+005
3.531035e+002, 1.699637e+005
3.531552e+002, 1.703113e+005
3.532069e+002, 1.700021e+005
3.532586e+002, 1.697405e+005
3.533104e+002, 1.698253e+005
3.533621e+002, 1.698151e+005
3.534138e+002, 1.698255e+005
3.534655e+002, 1.698652e+005
3.535172e+002, 1.698310e+005
3.535690e+002, 1.699338e+005
3.536207e+002, 1.697151e+005
3.536724e+002, 1.693015e+005
3.537242e+002, 1.693537e+005
3.537759e+002, 1.691391e+005
3.538276e+002, 1.692374e+005
3.538793e+002, 1.693155e+005
3.539310e+002, 1.692634e+005
3.539828e+002, 1.690440e+005
3.540345e+002, 1.692544e+005
3.540862e+002, 1.688247e+005
3.541379e+002, 1.686390e+005
3.541897e+002, 1.681668e+005
3.542414e+002, 1.685291e+005
3.542931e+002, 1.685726e+005
3.543448e+002, 1.689002e+005
3.543965e+002, 1.685449e+005
3.544483e+002, 1.682313e+005
3.545000e+002, 1.680411e+005
3.545517e+002, 1.680738e+005
3.546035e+002, 1.675297e+005
3.546552e+002, 1.674753e+005
3.547069e+002, 1.678256e+005
3.547586e+002, 1.677068e+005
3.548104e+002, 1.673472e+005
3.548621e+002, 1.673005e+005
3.549138e+002, 1.672879e+005
3.549655e+002, 1.677206e+005
3.550172e+002, 1.675438e+005
3.550690e+002, 1.673808e+005
3.551207e+002, 1.672172e+005
3.551724e+002, 1.673450e+005
3.552242e+002, 1.677255e+005
3.552759e+002, 1.677390e+005
3.553276e+002, 1.677071e+005
3.553793e+002, 1.667457e+005
3.554310e+002, 1.668710e+005
3.554828e+002, 1.667642e+005
3.555345e+002, 1.668051e+005
3.555862e+002, 1.672076e+005
3.556379e+002, 1.667338e+005
3.556897e+002, 1.667754e+005
3.557414e+002, 1.668098e+005
3.557931e+002, 1.670731e+005
3.558448e+002, 1.666457e+005
3.558965e+002, 1.666773e+005
3.559483e+002, 1.666701e+005
3.560000e+002, 1.669959e+005
3.560517e+002, 1.671842e+005
3.561035e+002, 1.667709e+005
3.561552e+002, 1.666658e+005
3.562069e+002, 1.663723e+005
3.562586e+002, 1.668133e+005
3.563104e+002, 1.670739e+005
3.563621e+002, 1.664990e+005
3.564138e+002, 1.661573e+005
3.564655e+002, 1.656637e+005
3.565172e+002, 1.657247e+005
3.565690e+002, 1.656994e+005
3.566207e+002, 1.654949e+005
3.566724e+002, 1.659352e+005
3.567242e+002, 1.661541e+005
3.567759e+002, 1.658481e+005
3.568276e+002, 1.657436e+005
3.568793e+002, 1.658338e+005
3.569310e+002, 1.660585e+005
3.569828e+002, 1.661903e+005
3.570345e+002, 1.663728e+005
3.570862e+002, 1.657301e+005
3.571379e+002, 1.654704e+005
3.571897e+002, 1.654557e+005
3.572414e+002, 1.653218e+005
3.572931e+002, 1.655330e+005
3.573448e+002, 1.655844e+005
3.573965e+002, 1.651432e+005
3.574483e+002, 1.653994e+005
3.575000e+002, 1.653512e+005
3.575517e+002, 1.654247e+005
3.576035e+002, 1.654341e+005
3.576552e+002, 1.651311e+005
3.577069e+002, 1.649524e+005
3.577586e+002, 1.649940e+005
3.578104e+002, 1.649490e+005
3.578621e+002, 1.648076e+005
3.579138e+002, 1.648436e+005
3.579655e+002, 1.646971e+005
3.580172e+002, 1.643352e+005
3.580690e+002, 1.644070e+005
3.581207e+002, 1.644696e+005
3.581724e+002, 1.644722e+005
3.582242e+002, 1.646381e+005
3.582759e+002, 1.646375e+005
3.583276e+002, 1.644965e+005
3.583793e+002, 1.648335e+005
3.584310e+002, 1.643790e+005
3.584828e+002, 1.639885e+005
3.585345e+002, 1.638429e+005
3.585862e+002, 1.636694e+005
3.586379e+002, 1.636564e+005
3.586897e+002, 1.638399e+005
3.587414e+002, 1.635041e+005
3.587931e+002, 1.630348e+005
3.588448e+002, 1.629322e+005
3.588965e+002, 1.633938e+005
3.589483e+002, 1.631769e+005
3.590000e+002, 1.636874e+005
3.590517e+002, 1.637892e+005
3.591035e+002, 1.634956e+005
3.591552e+002, 1.634021e+005
3.592069e+002, 1.634978e+005
3.592586e+002, 1.629172e+005
3.593104e+002, 1.629410e+005
3.593621e+002, 1.632104e+005
3.594138e+002, 1.629431e+005
3.594655e+002, 1.626555e+005
3.595172e+002, 1.625748e+005
3.595690e+002, 1.628230e+005
3.596207e+002, 1.626102e+005
3.596724e+002, 1.622201e+005
3.597242e+002, 1.617815e+005
3.597759e+002, 1.617699e+005
3.598276e+002, 1.619161e+005
3.598793e+002, 1.617536e+005
3.599310e+002, 1.621995e+005
3.599828e+002, 1.626054e+005
3.600345e+002, 1.622056e+005
3.600862e+002, 1.620413e+005
3.601379e+002, 1.622516e+005
3.601897e+002, 1.617381e+005
3.602414e+002, 1.614753e+005
3.602931e+002, 1.613662e+005
3.603448e+002, 1.614034e+005
3.603965e+002, 1.618087e+005
3.604483e+002, 1.618011e+005
3.605000e+002, 1.614638e+005
3.605517e+002, 1.613568e+005
3.606035e+002, 1.618823e+005
3.606552e+002, 1.617082e+005
3.607069e+002, 1.615317e+005
3.607586e+002, 1.615792e+005
3.608104e+002, 1.616552e+005
3.608621e+002, 1.621410e+005
3.609138e+002, 1.617660e+005
3.609655e+002, 1.614847e+005
3.610172e+002, 1.610049e+005
3.610690e+002, 1.609343e+005
3.611207e+002, 1.603192e+005
3.611724e+002, 1.607371e+005
3.612242e+002, 1.611576e+005
3.612759e+002, 1.610510e+005
3.613276e+002, 1.613292e+005
3.613793e+002, 1.612448e+005
3.614310e+002, 1.604493e+005
3.614828e+002, 1.604445e+005
3.615345e+002, 1.604182e+005
3.615862e+002, 1.599732e+005
3.616379e+002, 1.599569e+005
3.616897e+002, 1.600363e+005
3.617414e+002, 1.598807e+005
3.617931e+002, 1.599509e+005
3.618448e+002, 1.599378e+005
3.618965e+002, 1.594940e+005
3.619483e+002, 1.599515e+005
3.620000e+002, 1.597685e+005
3.620517e+002, 1.596956e+005
3.621035e+002, 1.595845e+005
3.621552e+002, 1.592784e+005
3.622069e+002, 1.588935e+005
3.622586e+002, 1.594223e+005
3.623104e+002, 1.597613e+005
3.623621e+002, 1.597007e+005
3.624138e+002, 1.597955e+005
3.624655e+002, 1.595675e+005
3.625172e+002, 1.593219e+005
3.625690e+002, 1.594178e+005
3.626207e+002, 1.592126e+005
3.626724e+002, 1.591341e+005
3.627242e+002, 1.594360e+005
3.627759e+002, 1.595649e+005
3.628276e+002, 1.587546e+005
3.628793e+002, 1.586276e+005
3.629310e+002, 1.589600e+005
3.629828e+002, 1.589482e+005
3.630345e+002, 1.590963e+005
3.630862e+002, 1.591058e+005
3.631379e+002, 1.586574e+005
3.631897e+002, 1.585030e+005
3.632414e+002, 1.584417e+005
3.632931e+002, 1.581416e+005
3.633448e+002, 1.581259e+005
3.633965e+002, 1.578614e+005
3.634483e+002, 1.577577e+005
3.635000e+002, 1.580113e+005
3.635517e+002, 1.586095e+005
3.636035e+002, 1.581500e+005
3.636552e+002, 1.586462e+005
3.637069e+002, 1.584706e+005
3.637586e+002, 1.582905e+005
3.638104e+002, 1.580608e+005
3.638621e+002, 1.581081e+005
3.639138e+002, 1.578791e+005
3.639655e+002, 1.574170e+005
3.640172e+002, 1.570286e+005
3.640690e+002, 1.572578e+005
3.641207e+002, 1.577158e+005
3.641724e+002, 1.573425e+005
3.642242e+002, 1.574655e+005
3.642759e+002, 1.576430e+005
3.643276e+002, 1.576371e+005
3.643793e+002, 1.573290e+005
3.644310e+002, 1.571600e+005
3.644828e+002, 1.569297e+005
3.645345e+002, 1.566328e+005
3.645862e+002, 1.564022e+005
3.646379e+002, 1.563555e+005
3.646897e+002, 1.562467e+005
3.647414e+002, 1.565973e+005
3.647931e+002, 1.565562e+005
3.648448e+002, 1.563137e+005
3.648965e+002, 1.569265e+005
3.649483e+002, 1.569728e+005
3.650000e+002, 1.564497e+005
3.650517e+002, 1.561475e+005
3.651035e+002, 1.557023e+005
3.651552e+002, 1.556957e+005
3.652069e+002, 1.562364e+005
3.652586e+002, 1.561670e+005
3.653104e+002, 1.554655e+005
3.653621e+002, 1.555100e+005
3.654138e+002, 1.560855e+005
3.654655e+002, 1.560692e+005
3.655172e+002, 1.558541e+005
3.655690e+002, 1.554993e+005
3.656207e+002, 1.555553e+005
3.656724e+002, 1.555203e+005
3.657242e+002, 1.557270e+005
3.657759e+002, 1.560085e+005
3.658276e+002, 1.562831e+005
3.658793e+002, 1.560922e+005
3.659310e+002, 1.556418e+005
3.659828e+002, 1.552960e+005
3.660345e+002, 1.550619e+005
3.660862e+002, 1.548169e+005
3.661379e+002, 1.549822e+005
3.661897e+002, 1.549192e+005
3.662414e+002, 1.546653e+005
3.662931e+002, 1.543251e+005
3.663448e+002, 1.544209e+005
3.663965e+002, 1.547117e+005
3.664483e+002, 1.549548e+005
3.665000e+002, 1.550537e+005
3.665517e+002, 1.546331e+005
3.666035e+002, 1.546221e+005
3.666552e+002, 1.541657e+005
3.667069e+002, 1.542973e+005
3.667586e+002, 1.545012e+005
3.668104e+002, 1.545795e+005
3.668621e+002, 1.541355e+005
3.669138e+002, 1.538354e+005
3.669655e+002, 1.540790e+005
3.670172e+002, 1.538202e+005
3.670690e+002, 1.535210e+005
3.671207e+002, 1.536752e+005
3.671724e+002, 1.539409e+005
3.672242e+002, 1.537240e+005
3.672759e+002, 1.533073e+005
3.673276e+002, 1.529458e+005
3.673793e+002, 1.526599e+005
3.674310e+002, 1.524160e+005
3.674828e+002, 1.524833e+005
3.675345e+002, 1.526538e+005
3.675862e+002, 1.527717e+005
3.676379e+002, 1.529585e+005
3.676897e+002, 1.530589e+005
3.677414e+002, 1.528864e+005
3.677931e+002, 1.525522e+005
3.678448e+002, 1.523485e+005
3.678965e+002, 1.521018e+005
3.679483e+002, 1.521803e+005
3.680000e+002, 1.523787e+005
3.680517e+002, 1.523039e+005
3.681035e+002, 1.521241e+005
3.681552e+002, 1.521683e+005
3.682069e+002, 1.518402e+005
3.682586e+002, 1.514718e+005
3.683104e+002, 1.516539e+005
3.683621e+002, 1.518839e+005
3.684138e+002, 1.513798e+005
3.684655e+002, 1.513182e+005
3.685172e+002, 1.514138e+005
3.685690e+002, 1.512972e+005
3.686207e+002, 1.510361e+005
3.686724e+002, 1.509141e+005
3.687242e+002, 1.508649e+005
3.687759e+002, 1.510049e+005
3.688276e+002, 1.511336e+005
3.688793e+002, 1.509678e+005
3.689310e+002, 1.507889e+005
3.689828e+002, 1.508945e+005
3.690345e+002, 1.507918e+005
3.690862e+002, 1.509865e+005
3.691379e+002, 1.506184e+005
3.691897e+002, 1.503540e+005
3.692414e+002, 1.505872e+005
3.692931e+002, 1.506916e+005
3.693448e+002, 1.505641e+005
3.693965e+002, 1.504045e+005
3.694483e+002, 1.504664e+005
3.695000e+002, 1.502491e+005
3.695517e+002, 1.506111e+005
3.696035e+002, 1.503625e+005
3.696552e+002, 1.497948e+005
3.697069e+002, 1.502490e+005
3.697586e+002, 1.502680e+005
3.698104e+002, 1.498805e+005
3.698621e+002, 1.490602e+005
3.699138e+002, 1.491286e+005
3.699655e+002, 1.488444e+005
3.700172e+002, 1.491660e+005
3.700690e+002, 1.491413e+005
3.701207e+002, 1.489650e+005
3.701724e+002, 1.488585e+005
3.702242e+002, 1.492453e+005
3.702759e+002, 1.494478e+005
3.703276e+002, 1.491827e+005
3.703793e+002, 1.488454e+005
3.704310e+002, 1.492276e+005
3.704828e+002, 1.491731e+005
3.705345e+002, 1.489106e+005
3.705862e+002, 1.485979e+005
3.706379e+002, 1.489038e+005
3.706897e+002, 1.484495e+005
3.707414e+002, 1.481671e+005
3.707931e+002, 1.483255e+005
3.708448e+002, 1.481998e+005
3.708965e+002, 1.481637e+005
3.709483e+002, 1.479092e+005
3.710000e+002, 1.479608e+005
3.710517e+002, 1.479693e+005
3.711035e+002, 1.481519e+005
3.711552e+002, 1.480792e+005
3.712069e+002, 1.472333e+005
3.712586e+002, 1.470752e+005
3.713104e+002, 1.472470e+005
3.713621e+002, 1.479204e+005
3.714138e+002, 1.482586e+005
3.714655e+002, 1.477664e+005
3.715172e+002, 1.474475e+005
3.715690e+002, 1.473191e+005
3.716207e+002, 1.474480e+005
3.716724e+002, 1.474639e+005
3.717242e+002, 1.476022e+005
3.717759e+002, 1.471564e+005
3.718276e+002, 1.467021e+005
3.718793e+002, 1.468194e+005
3.719310e+002, 1.468611e+005
3.719828e+002, 1.470248e+005
3.720345e+002, 1.474208e+005
3.720862e+002, 1.476660e+005
3.721379e+002, 1.468419e+005
3.721897e+002, 1.470728e+005
3.722414e+002, 1.468851e+005
3.722931e+002, 1.470353e+005
3.723448e+002, 1.468430e+005
3.723965e+002, 1.468325e+005
3.724483e+002, 1.463250e+005
3.725000e+002, 1.461599e+005
3.725517e+002, 1.459000e+005
3.726035e+002, 1.459004e+005
3.726552e+002, 1.459704e+005
3.727069e+002, 1.465545e+005
3.727586e+002, 1.465361e+005
3.728104e+002, 1.464024e+005
3.728621e+002, 1.462561e+005
3.729138e+002, 1.458698e+005
3.729655e+002, 1.461775e+005
3.730172e+002, 1.460551e+005
3.730690e+002, 1.458256e+005
3.731207e+002, 1.458689e+005
3.731724e+002, 1.457577e+005
3.732242e+002, 1.451164e+005
3.732759e+002, 1.453783e+005
3.733276e+002, 1.453446e+005
3.733793e+002, 1.453208e+005
3.734310e+002, 1.450926e+005
3.734828e+002, 1.454591e+005
3.735345e+002, 1.456321e+005
3.735862e+002, 1.457889e+005
3.736379e+002, 1.452618e+005
3.736897e+002, 1.452513e+005
3.737414e+002, 1.451510e+005
3.737931e+002, 1.450025e+005
3.738448e+002, 1.446925e+005
3.738965e+002, 1.451337e+005
3.739483e+002, 1.452970e+005
3.740000e+002, 1.450198e+005
3.740517e+002, 1.449482e+005
3.741035e+002, 1.450510e+005
3.741552e+002, 1.444724e+005
3.742069e+002, 1.441479e+005
3.742586e+002, 1.437180e+005
3.743104e+002, 1.438720e+005
3.743621e+002, 1.442593e+005
3.744138e+002, 1.440492e+005
3.744655e+002, 1.441908e+005
3.745172e+002, 1.441015e+005
3.745690e+002, 1.437348e+005
3.746207e+002, 1.436227e+005
3.746724e+002, 1.438182e+005
3.747242e+002, 1.438918e+005
3.747759e+002, 1.436541e+005
3.748276e+002, 1.435332e+005
3.748793e+002, 1.435956e+005
3.749310e+002, 1.435932e+005
3.749828e+002, 1.433083e+005
3.750345e+002, 1.432180e+005
3.750862e+002, 1.426910e+005
3.751379e+002, 1.424212e+005
3.751897e+002, 1.423827e+005
3.752414e+002, 1.427079e+005
3.752931e+002, 1.424457e+005
3.753448e+002, 1.424440e+005
3.753965e+002, 1.424093e+005
3.754483e+002, 1.423546e+005
3.755000e+002, 1.420632e+005
3.755517e+002, 1.417868e+005
3.756035e+002, 1.415694e+005
3.756552e+002, 1.417929e+005
3.757069e+002, 1.419626e+005
3.757586e+002, 1.419190e+005
3.758104e+002, 1.417008e+005
3.758621e+002, 1.423611e+005
3.759138e+002, 1.424030e+005
3.759655e+002, 1.421471e+005
3.760172e+002, 1.421943e+005
3.760690e+002, 1.417941e+005
3.761207e+002, 1.415367e+005
3.761724e+002, 1.414224e+005
3.762242e+002, 1.410972e+005
3.762759e+002, 1.405519e+005
3.763276e+002, 1.406733e+005
3.763793e+002, 1.407510e+005
3.764310e+002, 1.407276e+005
3.764828e+002, 1.408054e+005
3.765345e+002, 1.407671e+005
3.765862e+002, 1.409195e+005
3.766379e+002, 1.409542e+005
3.766897e+002, 1.407103e+005
3.767414e+002, 1.407536e+005
3.767931e+002, 1.407862e+005
3.768448e+002, 1.406228e+005
3.768965e+002, 1.405225e+005
3.769483e+002, 1.406054e+005
3.770000e+002, 1.407192e+005
3.770517e+002, 1.405209e+005
3.771035e+002, 1.405059e+005
3.771552e+002, 1.401163e+005
3.772069e+002, 1.398150e+005
3.772586e+002, 1.400110e+005
3.773104e+002, 1.401342e+005
3.773621e+002, 1.397671e+005
3.774138e+002, 1.394954e+005
3.774655e+002, 1.395507e+005
3.775172e+002, 1.394694e+005
3.775690e+002, 1.394047e+005
3.776207e+002, 1.392496e+005
3.776724e+002, 1.392351e+005
3.777242e+002, 1.393890e+005
3.777759e+002, 1.394118e+005
3.778276e+002, 1.394224e+005
3.778793e+002, 1.395579e+005
3.779310e+002, 1.390322e+005
3.779828e+002, 1.388220e+005
3.780345e+002, 1.383050e+005
3.780862e+002, 1.382763e+005
3.781379e+002, 1.386143e+005
3.781897e+002, 1.389826e+005
3.782414e+002, 1.391302e+005
3.782931e+002, 1.387725e+005
3.783448e+002, 1.387124e+005
3.783965e+002, 1.385971e+005
3.784483e+002, 1.388814e+005
3.785000e+002, 1.384930e+005
3.785517e+002, 1.380715e+005
3.786035e+002, 1.379923e+005
3.786552e+002, 1.382867e+005
3.787069e+002, 1.386779e+005
3.787586e+002, 1.385293e+005
3.788104e+002, 1.379820e+005
3.788621e+002, 1.378841e+005
3.789138e+002, 1.377319e+005
3.789655e+002, 1.378647e+005
3.790172e+002, 1.382547e+005
3.790690e+002, 1.377315e+005
3.791207e+002, 1.375538e+005
3.791724e+002, 1.373832e+005
3.792242e+002, 1.372931e+005
3.792759e+002, 1.374082e+005
3.793276e+002, 1.376889e+005
3.793793e+002, 1.375793e+005
3.794310e+002, 1.376222e+005
3.794828e+002, 1.374337e+005
3.795345e+002, 1.374419e+005
3.795862e+002, 1.375278e+005
3.796379e+002, 1.378483e+005
3.796897e+002, 1.377323e+005
3.797414e+002, 1.377423e+005
3.797931e+002, 1.371639e+005
3.798448e+002, 1.370531e+005
3.798965e+002, 1.370740e+005
3.799483e+002, 1.371497e+005
3.800000e+002, 1.372906e+005
3.800517e+002, 1.375492e+005
3.801035e+002, 1.371728e+005
3.801552e+002, 1.364465e+005
3.802069e+002, 1.360105e+005
3.802586e+002, 1.361293e+005
3.803104e+002, 1.361260e+005
3.803621e+002, 1.366174e+005
3.804138e+002, 1.367089e+005
3.804655e+002, 1.362451e+005
3.805172e+002, 1.360455e+005
3.805690e+002, 1.361517e+005
3.806207e+002, 1.361928e+005
3.806724e+002, 1.361987e+005
3.807242e+002, 1.361719e+005
3.807759e+002, 1.361369e+005
3.808276e+002, 1.357983e+005
3.808793e+002, 1.357339e+005
3.809310e+002, 1.360359e+005
3.809828e+002, 1.358762e+005
3.810345e+002, 1.356304e+005
3.810862e+002, 1.353697e+005
3.811379e+002, 1.353619e+005
3.811897e+002, 1.351551e+005
3.812414e+002, 1.351283e+005
3.812931e+002, 1.352986e+005
3.813448e+002, 1.354834e+005
3.813965e+002, 1.354449e+005
3.814483e+002, 1.356158e+005
3.815000e+002, 1.354304e+005
3.815517e+002, 1.353891e+005
3.816035e+002, 1.352298e+005
3.816552e+002, 1.351392e+005
3.817069e+002, 1.349793e+005
3.817586e+002, 1.349554e+005
3.818104e+002, 1.351769e+005
3.818621e+002, 1.350964e+005
3.819138e+002, 1.349882e+005
3.819655e+002, 1.343868e+005
3.820172e+002, 1.344172e+005
3.820690e+002, 1.341073e+005
3.821207e+002, 1.341417e+005
3.821724e+002, 1.339957e+005
3.822242e+002, 1.341498e+005
3.822759e+002, 1.343963e+005
3.823276e+002, 1.341363e+005
3.823793e+002, 1.343783e+005
3.824310e+002, 1.342987e+005
3.824828e+002, 1.340550e+005
3.825345e+002, 1.343952e+005
3.825862e+002, 1.341253e+005
3.826379e+002, 1.342342e+005
3.826897e+002, 1.339049e+005
3.827414e+002, 1.334400e+005
3.827931e+002, 1.333374e+005
3.828448e+002, 1.334525e+005
3.828965e+002, 1.332669e+005
3.829483e+002, 1.328468e+005
3.830000e+002, 1.327584e+005
3.830517e+002, 1.328897e+005
3.831035e+002, 1.328007e+005
3.831552e+002, 1.334378e+005
3.832069e+002, 1.330588e+005
3.832586e+002, 1.328836e+005
3.833104e+002, 1.327526e+005
3.833621e+002, 1.328378e+005
3.834138e+002, 1.327390e+005
3.834655e+002, 1.331857e+005
3.835172e+002, 1.329230e+005
3.835690e+002, 1.328148e+005
3.836207e+002, 1.328314e+005
3.836724e+002, 1.330560e+005
3.837242e+002, 1.328640e+005
3.837759e+002, 1.329767e+005
3.838276e+002, 1.325266e+005
3.838793e+002, 1.326400e+005
3.839310e+002, 1.325215e+005
3.839828e+002, 1.323456e+005
3.840345e+002, 1.324084e+005
3.840862e+002, 1.326652e+005
3.841379e+002, 1.326275e+005
3.841897e+002, 1.321404e+005
3.842414e+002, 1.317463e+005
3.842931e+002, 1.316378e+005
3.843448e+002, 1.316993e+005
3.843965e+002, 1.322882e+005
3.844483e+002, 1.318945e+005
3.845000e+002, 1.315704e+005
3.845517e+002, 1.317244e+005
3.846035e+002, 1.313971e+005
3.846552e+002, 1.304836e+005
3.847069e+002, 1.305085e+005
3.847586e+002, 1.311163e+005
3.848104e+002, 1.311363e+005
3.848621e+002, 1.311921e+005
3.849138e+002, 1.312569e+005
3.849655e+002, 1.312438e+005
3.850172e+002, 1.312406e+005
3.850690e+002, 1.308923e+005
3.851207e+002, 1.303754e+005
3.851724e+002, 1.303857e+005
3.852242e+002, 1.301585e+005
3.852759e+002, 1.306016e+005
3.853276e+002, 1.309691e+005
3.853793e+002, 1.307840e+005
3.854310e+002, 1.303732e+005
3.854828e+002, 1.304241e+005
3.855345e+002, 1.302851e+005
3.855862e+002, 1.299164e+005
3.856379e+002, 1.297036e+005
3.856897e+002, 1.299741e+005
3.857414e+002, 1.302511e+005
3.857931e+002, 1.304642e+005
3.858448e+002, 1.303208e+005
3.858965e+002, 1.302676e+005
3.859483e+002, 1.299676e+005
3.860000e+002, 1.301815e+005
3.860517e+002, 1.300920e+005
3.861035e+002, 1.299543e+005
3.861552e+002, 1.297513e+005
3.862069e+002, 1.295374e+005
3.862586e+002, 1.298307e+005
3.863104e+002, 1.300468e+005
3.863621e+002, 1.300228e+005
3.864138e+002, 1.296826e+005
3.864655e+002, 1.290822e+005
3.865172e+002, 1.289641e+005
3.865690e+002, 1.289675e+005
3.866207e+002, 1.292869e+005
3.866724e+002, 1.288371e+005
3.867242e+002, 1.287371e+005
3.867759e+002, 1.285501e+005
3.868276e+002, 1.284608e+005
3.868793e+002, 1.289453e+005
3.869310e+002, 1.287583e+005
3.869828e+002, 1.281153e+005
3.870345e+002, 1.282377e+005
3.870862e+002, 1.283064e+005
3.871379e+002, 1.284493e+005
3.871897e+002, 1.287364e+005
3.872414e+002, 1.286261e+005
3.872931e+002, 1.285884e+005
3.873448e+002, 1.288523e+005
3.873965e+002, 1.286435e+005
3.874483e+002, 1.281012e+005
3.875000e+002, 1.279159e+005
3.875517e+002, 1.277591e+005
3.876035e+002, 1.273994e+005
3.876552e+002, 1.276527e+005
3.877069e+002, 1.279012e+005
3.877586e+002, 1.277434e+005
3.878104e+002, 1.277042e+005
3.878621e+002, 1.275062e+005
3.879138e+002, 1.274641e+005
3.879655e+002, 1.274538e+005
3.880172e+002, 1.276565e+005
3.880690e+002, 1.274592e+005
3.881207e+002, 1.275811e+005
3.881724e+002, 1.274344e+005
3.882242e+002, 1.273478e+005
3.882759e+002, 1.271277e+005
3.883276e+002, 1.269666e+005
3.883793e+002, 1.265548e+005
3.884310e+002, 1.269228e+005
3.884828e+002, 1.266482e+005
3.885345e+002, 1.264686e+005
3.885862e+002, 1.267578e+005
3.886379e+002, 1.268697e+005
3.886897e+002, 1.266037e+005
3.887414e+002, 1.264907e+005
3.887931e+002, 1.266324e+005
3.888448e+002, 1.268136e+005
3.888965e+002, 1.267025e+005
3.889483e+002, 1.266949e+005
3.890000e+002, 1.265410e+005
3.890517e+002, 1.266026e+005
3.891035e+002, 1.266191e+005
3.891552e+002, 1.263010e+005
3.892069e+002, 1.260944e+005
3.892586e+002, 1.261380e+005
3.893104e+002, 1.260840e+005
3.893621e+002, 1.261301e+005
3.894138e+002, 1.257381e+005
3.894655e+002, 1.257565e+005
3.895172e+002, 1.260540e+005
3.895690e+002, 1.259603e+005
3.896207e+002, 1.257609e+005
3.896724e+002, 1.254493e+005
3.897242e+002, 1.249195e+005
3.897759e+002, 1.250352e+005
3.898276e+002, 1.255119e+005
3.898793e+002, 1.254555e+005
3.899310e+002, 1.250278e+005
3.899828e+002, 1.249786e+005
3.900345e+002, 1.243783e+005
3.900862e+002, 1.243173e+005
3.901379e+002, 1.247715e+005
3.901897e+002, 1.247486e+005
3.902414e+002, 1.245707e+005
3.902931e+002, 1.246369e+005
3.903448e+002, 1.244881e+005
3.903965e+002, 1.244136e+005
3.904483e+002, 1.247848e+005
3.905000e+002, 1.247729e+005
3.905517e+002, 1.246790e+005
3.906035e+002, 1.247072e+005
3.906552e+002, 1.247661e+005
3.907069e+002, 1.241049e+005
3.907586e+002, 1.241544e+005
3.908104e+002, 1.242193e+005
3.908621e+002, 1.241557e+005
3.909138e+002, 1.240656e+005
3.909655e+002, 1.239065e+005
3.910172e+002, 1.238455e+005
3.910690e+002, 1.237284e+005
3.911207e+002, 1.235620e+005
3.911724e+002, 1.237120e+005
3.912242e+002, 1.235517e+005
3.912759e+002, 1.236480e+005
3.913276e+002, 1.238062e+005
3.913793e+002, 1.238959e+005
3.914310e+002, 1.241219e+005
3.914828e+002, 1.241891e+005
3.915345e+002, 1.240277e+005
3.915862e+002, 1.240154e+005
3.916379e+002, 1.238064e+005
3.916897e+002, 1.235515e+005
3.917414e+002, 1.232175e+005
3.917931e+002, 1.233736e+005
3.918448e+002, 1.236624e+005
3.918965e+002, 1.232435e+005
3.919483e+002, 1.229826e+005
3.920000e+002, 1.228457e+005
3.920517e+002, 1.228546e+005
3.921035e+002, 1.229203e+005
3.921552e+002, 1.233968e+005
3.922069e+002, 1.232238e+005
3.922586e+002, 1.225967e+005
3.923104e+002, 1.224044e+005
3.923621e+002, 1.221775e+005
3.924138e+002, 1.221564e+005
3.924655e+002, 1.226585e+005
3.925172e+002, 1.224444e+005
3.925690e+002, 1.221594e+005
3.926207e+002, 1.223652e+005
3.926724e+002, 1.222793e+005
3.927242e+002, 1.221158e+005
3.927759e+002, 1.220436e+005
3.928276e+002, 1.217678e+005
3.928793e+002, 1.218531e+005
3.929310e+002, 1.216930e+005
3.929828e+002, 1.214904e+005
3.930345e+002, 1.215197e+005
3.930862e+002, 1.216878e+005
3.931379e+002, 1.217208e+005
3.931897e+002, 1.213427e+005
3.932414e+002, 1.214948e+005
3.932931e+002, 1.215143e+005
3.933448e+002, 1.215060e+005
3.933965e+002, 1.214912e+005
3.934483e+002, 1.210936e+005
3.935000e+002, 1.208539e+005
3.935517e+002, 1.211442e+005
3.936035e+002, 1.210014e+005
3.936552e+002, 1.209781e+005
3.937069e+002, 1.213562e+005
3.937586e+002, 1.210972e+005
3.938104e+002, 1.211544e+005
3.938621e+002, 1.208246e+005
3.939138e+002, 1.206771e+005
3.939655e+002, 1.208616e+005
3.940172e+002, 1.209563e+005
3.940690e+002, 1.207020e+005
3.941207e+002, 1.203250e+005
3.941724e+002, 1.202958e+005
3.942242e+002, 1.204610e+005
3.942759e+002, 1.203243e+005
3.943276e+002, 1.202228e+005
3.943793e+002, 1.203058e+005
3.944310e+002, 1.205967e+005
3.944828e+002, 1.203105e+005
3.945345e+002, 1.204425e+005
3.945862e+002, 1.201879e+005
3.946379e+002, 1.200899e+005
3.946897e+002, 1.199669e+005
3.947414e+002, 1.196172e+005
3.947931e+002, 1.194556e+005
3.948448e+002, 1.194844e+005
3.948965e+002, 1.194479e+005
3.949483e+002, 1.200393e+005
3.950000e+002, 1.199623e+005
3.950517e+002, 1.196434e+005
3.951035e+002, 1.197623e+005
3.951552e+002, 1.193371e+005
3.952069e+002, 1.194195e+005
3.952586e+002, 1.196283e+005
3.953104e+002, 1.197058e+005
3.953621e+002, 1.194719e+005
3.954138e+002, 1.194782e+005
3.954655e+002, 1.191702e+005
3.955172e+002, 1.193737e+005
3.955690e+002, 1.193009e+005
3.956207e+002, 1.186920e+005
3.956724e+002, 1.188163e+005
3.957242e+002, 1.191107e+005
3.957759e+002, 1.193329e+005
3.958276e+002, 1.189831e+005
3.958793e+002, 1.189351e+005
3.959310e+002, 1.186488e+005
3.959828e+002, 1.188228e+005
3.960345e+002, 1.189416e+005
3.960862e+002, 1.185477e+005
3.961379e+002, 1.181582e+005
3.961897e+002, 1.185416e+005
3.962414e+002, 1.180529e+005
3.962931e+002, 1.178751e+005
3.963448e+002, 1.179815e+005
3.963965e+002, 1.180581e+005
3.964483e+002, 1.179108e+005
3.965000e+002, 1.179505e+005
3.965517e+002, 1.178975e+005
3.966035e+002, 1.179286e+005
3.966552e+002, 1.180109e+005
3.967069e+002, 1.178783e+005
3.967586e+002, 1.179212e+005
3.968104e+002, 1.181777e+005
3.968621e+002, 1.177640e+005
3.969138e+002, 1.176942e+005
3.969655e+002, 1.174792e+005
3.970172e+002, 1.174521e+005
3.970690e+002, 1.176763e+005
3.971207e+002, 1.181195e+005
3.971724e+002, 1.181345e+005
3.972242e+002, 1.178283e+005
3.972759e+002, 1.178065e+005
3.973276e+002, 1.175454e+005
3.973793e+002, 1.172735e+005
3.974310e+002, 1.170022e+005
3.974828e+002, 1.174198e+005
3.975345e+002, 1.177596e+005
3.975862e+002, 1.179862e+005
3.976379e+002, 1.179785e+005
3.976897e+002, 1.174100e+005
3.977414e+002, 1.175302e+005
3.977931e+002, 1.176530e+005
3.978448e+002, 1.177986e+005
3.978965e+002, 1.179795e+005
3.979483e+002, 1.178922e+005
3.980000e+002, 1.175543e+005
3.980517e+002, 1.174973e+005
3.981035e+002, 1.175385e+005
3.981552e+002, 1.170470e+005
3.982069e+002, 1.170020e+005
3.982586e+002, 1.169714e+005
3.983104e+002, 1.169658e+005
3.983621e+002, 1.171656e+005
3.984138e+002, 1.173782e+005
3.984655e+002, 1.172234e+005
3.985172e+002, 1.179478e+005
3.985690e+002, 1.178135e+005
3.986207e+002, 1.178873e+005
3.986724e+002, 1.175195e+005
3.987242e+002, 1.166955e+005
3.987759e+002, 1.166041e+005
3.988276e+002, 1.170034e+005
3.988793e+002, 1.167294e+005
3.989310e+002, 1.167624e+005
3.989828e+002, 1.172072e+005
3.990345e+002, 1.172546e+005
3.990862e+002, 1.173194e+005
3.991379e+002, 1.175928e+005
3.991897e+002, 1.177023e+005
3.992414e+002, 1.176100e+005
3.992931e+002, 1.173702e+005
3.993448e+002, 1.170148e+005
3.993965e+002, 1.168519e+005
3.994483e+002, 1.172335e+005
3.995000e+002, 1.171584e+005
3.995517e+002, 1.169465e+005
3.996035e+002, 1.168754e+005
3.996552e+002, 1.165296e+005
3.997069e+002, 1.164749e+005
3.997586e+002, 1.169411e+005
3.998104e+002, 1.164781e+005
3.998621e+002, 1.163935e+005
3.999138e+002, 1.161335e+005
3.999655e+002, 1.158530e+005
4.000172e+002, 1.158073e+005
4.000690e+002, 1.159828e+005
4.001207e+002, 1.160708e+005
4.001724e+002, 1.159627e+005
4.002242e+002, 1.162386e+005
4.002759e+002, 1.164417e+005
4.003276e+002, 1.165664e+005
4.003793e+002, 1.161614e+005
4.004310e+002, 1.161430e+005
4.004828e+002, 1.155993e+005
4.005345e+002, 1.155554e+005
4.005862e+002, 1.153749e+005
4.006379e+002, 1.154101e+005
4.006897e+002, 1.154494e+005
4.007414e+002, 1.150477e+005
4.007931e+002, 1.148120e+005
4.008448e+002, 1.148605e+005
4.008965e+002, 1.153116e+005
4.009483e+002, 1.152121e+005
4.010000e+002, 1.150033e+005
4.010517e+002, 1.150420e+005
4.011035e+002, 1.151761e+005
4.011552e+002, 1.150670e+005
4.012069e+002, 1.145692e+005
4.012586e+002, 1.146078e+005
4.013104e+002, 1.146320e+005
4.013621e+002, 1.146007e+005
4.014138e+002, 1.146398e+005
4.014655e+002, 1.147100e+005
4.015172e+002, 1.141135e+005
4.015690e+002, 1.138741e+005
4.016207e+002, 1.137937e+005
4.016724e+002, 1.138749e+005
4.017242e+002, 1.138770e+005
4.017759e+002, 1.138757e+005
4.018276e+002, 1.137154e+005
4.018793e+002, 1.139913e+005
4.019310e+002, 1.138860e+005
4.019828e+002, 1.137147e+005
4.020345e+002, 1.139217e+005
4.020862e+002, 1.139674e+005
4.021379e+002, 1.137850e+005
4.021897e+002, 1.131765e+005
4.022414e+002, 1.127663e+005
4.022931e+002, 1.128455e+005
4.023448e+002, 1.123862e+005
4.023965e+002, 1.129051e+005
4.024483e+002, 1.130381e+005
4.025000e+002, 1.127348e+005
4.025517e+002, 1.126645e+005
4.026035e+002, 1.124537e+005
4.026552e+002, 1.123289e+005
4.027069e+002, 1.127062e+005
4.027586e+002, 1.127446e+005
4.028104e+002, 1.120985e+005
4.028621e+002, 1.118021e+005
4.029138e+002, 1.120345e+005
4.029655e+002, 1.120001e+005
4.030172e+002, 1.121410e+005
4.030690e+002, 1.120184e+005
4.031207e+002, 1.120058e+005
4.031724e+002, 1.124564e+005
4.032242e+002, 1.122361e+005
4.032759e+002, 1.118495e+005
4.033276e+002, 1.119882e+005
4.033793e+002, 1.117264e+005
4.034310e+002, 1.114537e+005
4.034828e+002, 1.117401e+005
4.035345e+002, 1.117759e+005
4.035862e+002, 1.113868e+005
4.036379e+002, 1.113196e+005
4.036897e+002, 1.115697e+005
4.037414e+002, 1.117738e+005
4.037931e+002, 1.119068e+005
4.038448e+002, 1.118471e+005
4.038965e+002, 1.113041e+005
4.039483e+002, 1.112374e+005
4.040000e+002, 1.115729e+005
4.040517e+002, 1.115833e+005
4.041035e+002, 1.115489e+005
4.041552e+002, 1.112420e+005
4.042069e+002, 1.114458e+005
4.042586e+002, 1.116925e+005
4.043104e+002, 1.115028e+005
4.043621e+002, 1.115078e+005
4.044138e+002, 1.114344e+005
4.044655e+002, 1.113767e+005
4.045172e+002, 1.109307e+005
4.045690e+002, 1.107696e+005
4.046207e+002, 1.105754e+005
4.046724e+002, 1.106675e+005
4.047242e+002, 1.110371e+005
4.047759e+002, 1.109810e+005
4.048276e+002, 1.109478e+005
4.048793e+002, 1.109448e+005
4.049310e+002, 1.105222e+005
4.049828e+002, 1.104988e+005
4.050345e+002, 1.105590e+005
4.050862e+002, 1.108740e+005
4.051379e+002, 1.110944e+005
4.051897e+002, 1.110364e+005
4.052414e+002, 1.109931e+005
4.052931e+002, 1.111041e+005
4.053448e+002, 1.106799e+005
4.053965e+002, 1.104947e+005
4.054483e+002, 1.102718e+005
4.055000e+002, 1.105679e+005
4.055517e+002, 1.104741e+005
4.056035e+002, 1.104184e+005
4.056552e+002, 1.104245e+005
4.057069e+002, 1.103958e+005
4.057586e+002, 1.103465e+005
4.058104e+002, 1.104668e+005
4.058621e+002, 1.101069e+005
4.059138e+002, 1.102360e+005
4.059655e+002, 1.105516e+005
4.060172e+002, 1.100897e+005
4.060690e+002, 1.099460e+005
4.061207e+002, 1.097951e+005
4.061724e+002, 1.100135e+005
4.062242e+002, 1.097959e+005
4.062759e+002, 1.097714e+005
4.063276e+002, 1.096364e+005
4.063793e+002, 1.098229e+005
4.064310e+002, 1.099675e+005
4.064828e+002, 1.092461e+005
4.065345e+002, 1.093174e+005
4.065862e+002, 1.094721e+005
4.066379e+002, 1.094950e+005
4.066897e+002, 1.094256e+005
4.067414e+002, 1.093630e+005
4.067931e+002, 1.095223e+005
4.068448e+002, 1.096376e+005
4.068965e+002, 1.096930e+005
4.069483e+002, 1.095964e+005
4.070000e+002, 1.097987e+005
4.070517e+002, 1.099309e+005
4.071035e+002, 1.091609e+005
4.071552e+002, 1.093852e+005
4.072069e+002, 1.095479e+005
4.072586e+002, 1.091973e+005
4.073104e+002, 1.092000e+005
4.073621e+002, 1.095635e+005
4.074138e+002, 1.095556e+005
4.074655e+002, 1.094485e+005
4.075173e+002, 1.094587e+005
4.075690e+002, 1.091484e+005
4.076207e+002, 1.090211e+005
4.076724e+002, 1.090839e+005
4.077242e+002, 1.087472e+005
4.077759e+002, 1.086774e+005
4.078276e+002, 1.086407e+005
4.078793e+002, 1.087816e+005
4.079310e+002, 1.082333e+005
4.079828e+002, 1.084647e+005
4.080345e+002, 1.085286e+005
4.080862e+002, 1.086915e+005
4.081379e+002, 1.086971e+005
4.081897e+002, 1.087844e+005
4.082414e+002, 1.088796e+005
4.082931e+002, 1.092458e+005
4.083448e+002, 1.086945e+005
4.083965e+002, 1.081180e+005
4.084483e+002, 1.079428e+005
4.085000e+002, 1.079727e+005
4.085517e+002, 1.077040e+005
4.086035e+002, 1.077008e+005
4.086552e+002, 1.076974e+005
4.087069e+002, 1.078514e+005
4.087586e+002, 1.079862e+005
4.088104e+002, 1.080553e+005
4.088621e+002, 1.079049e+005
4.089138e+002, 1.076537e+005
4.089655e+002, 1.073249e+005
4.090173e+002, 1.074899e+005
4.090690e+002, 1.075474e+005
4.091207e+002, 1.078022e+005
4.091724e+002, 1.076668e+005
4.092242e+002, 1.078276e+005
4.092759e+002, 1.072208e+005
4.093276e+002, 1.071808e+005
4.093793e+002, 1.072731e+005
4.094310e+002, 1.069925e+005
4.094828e+002, 1.069088e+005
4.095345e+002, 1.073044e+005
4.095862e+002, 1.067219e+005
4.096379e+002, 1.066344e+005
4.096897e+002, 1.068432e+005
4.097414e+002, 1.064193e+005
4.097931e+002, 1.063744e+005
4.098448e+002, 1.066614e+005
4.098965e+002, 1.070148e+005
4.099483e+002, 1.069830e+005
4.100000e+002, 1.070501e+005
4.100517e+002, 1.069042e+005
4.101035e+002, 1.067746e+005
4.101552e+002, 1.066850e+005
4.102069e+002, 1.065477e+005
4.102586e+002, 1.062716e+005
4.103104e+002, 1.060645e+005
4.103621e+002, 1.064738e+005
4.104138e+002, 1.063341e+005
4.104655e+002, 1.062002e+005
4.105173e+002, 1.059990e+005
4.105690e+002, 1.057571e+005
4.106207e+002, 1.058859e+005
4.106724e+002, 1.058535e+005
4.107242e+002, 1.057182e+005
4.107759e+002, 1.056975e+005
4.108276e+002, 1.057233e+005
4.108793e+002, 1.053123e+005
4.109310e+002, 1.053642e+005
4.109828e+002, 1.052101e+005
4.110345e+002, 1.052705e+005
4.110862e+002, 1.051895e+005
4.111379e+002, 1.055718e+005
4.111897e+002, 1.056699e+005
4.112414e+002, 1.058300e+005
4.112931e+002, 1.052981e+005
4.113448e+002, 1.052019e+005
4.113965e+002, 1.053995e+005
4.114483e+002, 1.050915e+005
4.115000e+002, 1.048749e+005
4.115517e+002, 1.050410e+005
4.116035e+002, 1.050461e+005
4.116552e+002, 1.050078e+005
4.117069e+002, 1.050567e+005
4.117586e+002, 1.045628e+005
4.118104e+002, 1.044880e+005
4.118621e+002, 1.045913e+005
4.119138e+002, 1.048201e+005
4.119655e+002, 1.048741e+005
4.120173e+002, 1.047600e+005
4.120690e+002, 1.046114e+005
4.121207e+002, 1.040908e+005
4.121724e+002, 1.041727e+005
4.122242e+002, 1.039194e+005
4.122759e+002, 1.038532e+005
4.123276e+002, 1.041328e+005
4.123793e+002, 1.041853e+005
4.124310e+002, 1.040642e+005
4.124828e+002, 1.041081e+005
4.125345e+002, 1.039177e+005
4.125862e+002, 1.037008e+005
4.126379e+002, 1.038311e+005
4.126897e+002, 1.038044e+005
4.127414e+002, 1.032041e+005
4.127931e+002, 1.032102e+005
4.128448e+002, 1.035687e+005
4.128965e+002, 1.036241e+005
4.129483e+002, 1.036171e+005
4.130000e+002, 1.033712e+005
4.130517e+002, 1.031798e+005
4.131035e+002, 1.031494e+005
4.131552e+002, 1.030011e+005
4.132069e+002, 1.028362e+005
4.132586e+002, 1.030418e+005
4.133104e+002, 1.030839e+005
4.133621e+002, 1.025735e+005
4.134138e+002, 1.026043e+005
4.134655e+002, 1.027238e+005
4.135173e+002, 1.030709e+005
4.135690e+002, 1.030390e+005
4.136207e+002, 1.028064e+005
4.136724e+002, 1.028524e+005
4.137242e+002, 1.028437e+005
4.137759e+002, 1.025120e+005
4.138276e+002, 1.025971e+005
4.138793e+002, 1.023564e+005
4.139310e+002, 1.022105e+005
4.139828e+002, 1.021498e+005
4.140345e+002, 1.022788e+005
4.140862e+002, 1.021824e+005
4.141379e+002, 1.021513e+005
4.141897e+002, 1.020326e+005
4.142414e+002, 1.018124e+005
4.142931e+002, 1.016275e+005
4.143448e+002, 1.017264e+005
4.143965e+002, 1.015896e+005
4.144483e+002, 1.018073e+005
4.145000e+002, 1.017199e+005
4.145517e+002, 1.018995e+005
4.146035e+002, 1.018088e+005
4.146552e+002, 1.021274e+005
4.147069e+002, 1.017058e+005
4.147586e+002, 1.016690e+005
4.148104e+002, 1.016527e+005
4.148621e+002, 1.012885e+005
4.149138e+002, 1.011203e+005
4.149655e+002, 1.010925e+005
4.150173e+002, 1.011794e+005
4.150690e+002, 1.011748e+005
4.151207e+002, 1.013367e+005
4.151724e+002, 1.011990e+005
4.152242e+002, 1.011771e+005
4.152759e+002, 1.008674e+005
4.153276e+002, 1.005674e+005
4.153793e+002, 1.005698e+005
4.154310e+002, 1.003448e+005
4.154828e+002, 9.987838e+004
4.155345e+002, 9.964800e+004
4.155862e+002, 1.002139e+005
4.156379e+002, 1.004403e+005
4.156897e+002, 1.002560e+005
4.157414e+002, 1.005085e+005
4.157931e+002, 1.003115e+005
4.158448e+002, 1.004402e+005
4.158965e+002, 1.003220e+005
4.159483e+002, 9.996266e+004
4.160000e+002, 9.996293e+004
4.160517e+002, 1.002642e+005
4.161035e+002, 9.976926e+004
4.161552e+002, 9.971121e+004
4.162069e+002, 9.990355e+004
4.162586e+002, 9.968837e+004
4.163104e+002, 9.931424e+004
4.163621e+002, 9.945367e+004
4.164138e+002, 9.934004e+004
4.164655e+002, 9.911580e+004
4.165173e+002, 9.878751e+004
4.165690e+002, 9.891706e+004
4.166207e+002, 9.940676e+004
4.166724e+002, 9.986848e+004
4.167242e+002, 9.957770e+004
4.167759e+002, 9.919248e+004
4.168276e+002, 9.893104e+004
4.168793e+002, 9.890142e+004
4.169310e+002, 9.888856e+004
4.169828e+002, 9.934911e+004
4.170345e+002, 9.936702e+004
4.170862e+002, 9.888729e+004
4.171379e+002, 9.874277e+004
4.171897e+002, 9.860371e+004
4.172414e+002, 9.881429e+004
4.172931e+002, 9.920198e+004
4.173448e+002, 9.864713e+004
4.173965e+002, 9.817502e+004
4.174483e+002, 9.826655e+004
4.175000e+002, 9.839039e+004
4.175517e+002, 9.808507e+004
4.176035e+002, 9.862184e+004
4.176552e+002, 9.869637e+004
4.177069e+002, 9.851370e+004
4.177586e+002, 9.836627e+004
4.178104e+002, 9.872195e+004
4.178621e+002, 9.842070e+004
4.179138e+002, 9.821424e+004
4.179655e+002, 9.787201e+004
4.180173e+002, 9.775749e+004
4.180690e+002, 9.805026e+004
4.181207e+002, 9.801287e+004
4.181724e+002, 9.799077e+004
4.182242e+002, 9.796409e+004
4.182759e+002, 9.799394e+004
4.183276e+002, 9.760038e+004
4.183793e+002, 9.745195e+004
4.184310e+002, 9.722259e+004
4.184828e+002, 9.716231e+004
4.185345e+002, 9.762735e+004
4.185862e+002, 9.764773e+004
4.186379e+002, 9.757962e+004
4.186897e+002, 9.788307e+004
4.187414e+002, 9.789421e+004
4.187931e+002, 9.763466e+004
4.188448e+002, 9.733006e+004
4.188965e+002, 9.754527e+004
4.189483e+002, 9.756870e+004
4.190000e+002, 9.729712e+004
4.190517e+002, 9.729564e+004
4.191035e+002, 9.707770e+004
4.191552e+002, 9.705848e+004
4.192069e+002, 9.668115e+004
4.192586e+002, 9.640321e+004
4.193104e+002, 9.652882e+004
4.193621e+002, 9.647474e+004
4.194138e+002, 9.626030e+004
4.194655e+002, 9.626591e+004
4.195173e+002, 9.625378e+004
4.195690e+002, 9.647556e+004
4.196207e+002, 9.689940e+004
4.196724e+002, 9.653589e+004
4.197242e+002, 9.573783e+004
4.197759e+002, 9.593813e+004
4.198276e+002, 9.641313e+004
4.198793e+002, 9.611991e+004
4.199310e+002, 9.643477e+004
4.199828e+002, 9.651615e+004
4.200345e+002, 9.626138e+004
4.200862e+002, 9.602134e+004
4.201379e+002, 9.575934e+004
4.201897e+002, 9.564545e+004
4.202414e+002, 9.564045e+004
4.202931e+002, 9.530224e+004
4.203448e+002, 9.540991e+004
4.203965e+002, 9.599164e+004
4.204483e+002, 9.616550e+004
4.205000e+002, 9.594747e+004
4.205517e+002, 9.594273e+004
4.206035e+002, 9.619847e+004
4.206552e+002, 9.605695e+004
4.207069e+002, 9.593590e+004
4.207586e+002, 9.568932e+004
4.208104e+002, 9.554493e+004
4.208621e+002, 9.564434e+004
4.209138e+002, 9.542094e+004
4.209655e+002, 9.519497e+004
4.210173e+002, 9.532376e+004
4.210690e+002, 9.554859e+004
4.211207e+002, 9.527363e+004
4.211724e+002, 9.574960e+004
4.212242e+002, 9.537999e+004
4.212759e+002, 9.517834e+004
4.213276e+002, 9.493430e+004
4.213793e+002, 9.456648e+004
4.214310e+002, 9.433443e+004
4.214828e+002, 9.478510e+004
4.215345e+002, 9.482148e+004
4.215862e+002, 9.473759e+004
4.216379e+002, 9.489495e+004
4.216897e+002, 9.460702e+004
4.217414e+002, 9.407979e+004
4.217931e+002, 9.415285e+004
4.218448e+002, 9.463056e+004
4.218965e+002, 9.476604e+004
4.219483e+002, 9.448491e+004
4.220000e+002, 9.415238e+004
4.220517e+002, 9.390582e+004
4.221035e+002, 9.392101e+004
4.221552e+002, 9.411773e+004
4.222069e+002, 9.407155e+004
4.222586e+002, 9.400210e+004
4.223104e+002, 9.370344e+004
4.223621e+002, 9.346111e+004
4.224138e+002, 9.332927e+004
4.224655e+002, 9.366370e+004
4.225173e+002, 9.306171e+004
4.225690e+002, 9.339105e+004
4.226207e+002, 9.323628e+004
4.226724e+002, 9.308062e+004
4.227242e+002, 9.279871e+004
4.227759e+002, 9.322173e+004
4.228276e+002, 9.325348e+004
4.228793e+002, 9.328166e+004
4.229310e+002, 9.310429e+004
4.229828e+002, 9.327120e+004
4.230345e+002, 9.350685e+004
4.230862e+002, 9.353129e+004
4.231379e+002, 9.294795e+004
4.231897e+002, 9.311340e+004
4.232414e+002, 9.304043e+004
4.232931e+002, 9.286303e+004
4.233448e+002, 9.322453e+004
4.233965e+002, 9.299499e+004
4.234483e+002, 9.228351e+004
4.235000e+002, 9.245209e+004
4.235517e+002, 9.237570e+004
4.236035e+002, 9.281739e+004
4.236552e+002, 9.322916e+004
4.237069e+002, 9.306690e+004
4.237586e+002, 9.252743e+004
4.238104e+002, 9.257588e+004
4.238621e+002, 9.238414e+004
4.239138e+002, 9.231238e+004
4.239655e+002, 9.228117e+004
4.240173e+002, 9.218516e+004
4.240690e+002, 9.200898e+004
4.241207e+002, 9.194655e+004
4.241724e+002, 9.188791e+004
4.242242e+002, 9.186042e+004
4.242759e+002, 9.202129e+004
4.243276e+002, 9.192150e+004
4.243793e+002, 9.180810e+004
4.244310e+002, 9.180618e+004
4.244828e+002, 9.192129e+004
4.245345e+002, 9.180493e+004
4.245862e+002, 9.165638e+004
4.246379e+002, 9.157164e+004
4.246897e+002, 9.144035e+004
4.247414e+002, 9.137542e+004
4.247931e+002, 9.125152e+004
4.248448e+002, 9.138825e+004
4.248965e+002, 9.122550e+004
4.249483e+002, 9.143547e+004
4.250000e+002, 9.140426e+004
4.250517e+002, 9.095720e+004
4.251035e+002, 9.093948e+004
4.251552e+002, 9.123357e+004
4.252069e+002, 9.149454e+004
4.252586e+002, 9.155901e+004
4.253104e+002, 9.136248e+004
4.253621e+002, 9.138319e+004
4.254138e+002, 9.118328e+004
4.254655e+002, 9.081130e+004
4.255173e+002, 9.081975e+004
4.255690e+002, 9.110496e+004
4.256207e+002, 9.086354e+004
4.256724e+002, 9.086438e+004
4.257242e+002, 9.042798e+004
4.257759e+002, 9.030100e+004
4.258276e+002, 9.049666e+004
4.258793e+002, 9.077573e+004
4.259310e+002, 9.067806e+004
4.259828e+002, 9.081409e+004
4.260345e+002, 9.059733e+004
4.260862e+002, 9.026693e+004
4.261379e+002, 9.034503e+004
4.261897e+002, 9.046554e+004
4.262414e+002, 9.041454e+004
4.262931e+002, 9.033969e+004
4.263448e+002, 9.015630e+004
4.263965e+002, 8.986728e+004
4.264483e+002, 9.012071e+004
4.265000e+002, 8.997695e+004
4.265517e+002, 8.958545e+004
4.266035e+002, 8.998673e+004
4.266552e+002, 9.009026e+004
4.267069e+002, 8.993656e+004
4.267586e+002, 8.985838e+004
4.268104e+002, 9.002156e+004
4.268621e+002, 8.984505e+004
4.269138e+002, 9.016113e+004
4.269655e+002, 8.970789e+004
4.270173e+002, 8.971031e+004
4.270690e+002, 8.933936e+004
4.271207e+002, 8.925009e+004
4.271724e+002, 8.920943e+004
4.272242e+002, 8.948459e+004
4.272759e+002, 8.959355e+004
4.273276e+002, 8.967865e+004
4.273793e+002, 8.964763e+004
4.274310e+002, 8.943295e+004
4.274828e+002, 8.880325e+004
4.275345e+002, 8.891423e+004
4.275862e+002, 8.862752e+004
4.276379e+002, 8.883994e+004
4.276897e+002, 8.934615e+004
4.277414e+002, 8.936970e+004
4.277931e+002, 8.908021e+004
4.278448e+002, 8.923430e+004
4.278965e+002, 8.880758e+004
4.279483e+002, 8.872913e+004
4.280000e+002, 8.878815e+004
4.280517e+002, 8.863984e+004
4.281035e+002, 8.858380e+004
4.281552e+002, 8.868416e+004
4.282069e+002, 8.883167e+004
4.282586e+002, 8.859363e+004
4.283104e+002, 8.883555e+004
4.283621e+002, 8.849037e+004
4.284138e+002, 8.827763e+004
4.284655e+002, 8.828935e+004
4.285173e+002, 8.854464e+004
4.285690e+002, 8.812284e+004
4.286207e+002, 8.806603e+004
4.286724e+002, 8.827791e+004
4.287242e+002, 8.846044e+004
4.287759e+002, 8.828827e+004
4.288276e+002, 8.815725e+004
4.288793e+002, 8.780645e+004
4.289310e+002, 8.790950e+004
4.289828e+002, 8.790274e+004
4.290345e+002, 8.766220e+004
4.290862e+002, 8.750132e+004
4.291379e+002, 8.774165e+004
4.291897e+002, 8.772549e+004
4.292414e+002, 8.749496e+004
4.292931e+002, 8.726120e+004
4.293448e+002, 8.713871e+004
4.293965e+002, 8.726635e+004
4.294483e+002, 8.730602e+004
4.295000e+002, 8.728712e+004
4.295517e+002, 8.750727e+004
4.296035e+002, 8.735173e+004
4.296552e+002, 8.721880e+004
4.297069e+002, 8.728551e+004
4.297586e+002, 8.708125e+004
4.298104e+002, 8.667188e+004
4.298621e+002, 8.684166e+004
4.299138e+002, 8.702584e+004
4.299655e+002, 8.648544e+004
4.300173e+002, 8.666270e+004
4.300690e+002, 8.695066e+004
4.301207e+002, 8.693804e+004
4.301724e+002, 8.684310e+004
4.302242e+002, 8.693189e+004
4.302759e+002, 8.677209e+004
4.303276e+002, 8.717415e+004
4.303793e+002, 8.742484e+004
4.304310e+002, 8.723490e+004
4.304828e+002, 8.707711e+004
4.305345e+002, 8.688446e+004
4.305862e+002, 8.678841e+004
4.306379e+002, 8.657800e+004
4.306897e+002, 8.670916e+004
4.307414e+002, 8.667882e+004
4.307931e+002, 8.683020e+004
4.308448e+002, 8.660473e+004
4.308965e+002, 8.621852e+004
4.309483e+002, 8.635830e+004
4.310000e+002, 8.622920e+004
4.310517e+002, 8.597927e+004
4.311035e+002, 8.638932e+004
4.311552e+002, 8.620732e+004
4.312069e+002, 8.629795e+004
4.312586e+002, 8.646991e+004
4.313104e+002, 8.587453e+004
4.313621e+002, 8.572457e+004
4.314138e+002, 8.576615e+004
4.314655e+002, 8.587105e+004
4.315173e+002, 8.576689e+004
4.315690e+002, 8.581589e+004
4.316207e+002, 8.582715e+004
4.316724e+002, 8.550141e+004
4.317242e+002, 8.534530e+004
4.317759e+002, 8.539070e+004
4.318276e+002, 8.542359e+004
4.318793e+002, 8.535374e+004
4.319310e+002, 8.523474e+004
4.319828e+002, 8.541283e+004
4.320345e+002, 8.553725e+004
4.320862e+002, 8.522866e+004
4.321379e+002, 8.502173e+004
4.321897e+002, 8.550162e+004
4.322414e+002, 8.552292e+004
4.322931e+002, 8.541198e+004
4.323448e+002, 8.524439e+004
4.323965e+002, 8.544484e+004
4.324483e+002, 8.546290e+004
4.325000e+002, 8.554857e+004
4.325517e+002, 8.559616e+004
4.326035e+002, 8.556938e+004
4.326552e+002, 8.535242e+004
4.327069e+002, 8.509333e+004
4.327586e+002, 8.492088e+004
4.328104e+002, 8.500723e+004
4.328621e+002, 8.479363e+004
4.329138e+002, 8.454245e+004
4.329655e+002, 8.473812e+004
4.330173e+002, 8.430806e+004
4.330690e+002, 8.395815e+004
4.331207e+002, 8.463024e+004
4.331724e+002, 8.490706e+004
4.332242e+002, 8.474016e+004
4.332759e+002, 8.426751e+004
4.333276e+002, 8.434838e+004
4.333793e+002, 8.450995e+004
4.334310e+002, 8.466074e+004
4.334828e+002, 8.433863e+004
4.335345e+002, 8.415866e+004
4.335862e+002, 8.428923e+004
4.336379e+002, 8.433118e+004
4.336897e+002, 8.424855e+004
4.337414e+002, 8.421272e+004
4.337931e+002, 8.409126e+004
4.338448e+002, 8.404159e+004
4.338965e+002, 8.396604e+004
4.339483e+002, 8.419947e+004
4.340000e+002, 8.394927e+004
4.340517e+002, 8.395271e+004
4.341035e+002, 8.374071e+004
4.341552e+002, 8.354720e+004
4.342069e+002, 8.344751e+004
4.342586e+002, 8.333541e+004
4.343104e+002, 8.331188e+004
4.343621e+002, 8.361568e+004
4.344138e+002, 8.393011e+004
4.344655e+002, 8.362052e+004
4.345173e+002, 8.368512e+004
4.345690e+002, 8.399888e+004
4.346207e+002, 8.358038e+004
4.346724e+002, 8.362895e+004
4.347242e+002, 8.320296e+004
4.347759e+002, 8.304799e+004
4.348276e+002, 8.337508e+004
4.348793e+002, 8.353380e+004
4.349310e+002, 8.295760e+004
4.349828e+002, 8.319290e+004
4.350345e+002, 8.324447e+004
4.350862e+002, 8.312291e+004
4.351379e+002, 8.277673e+004
4.351897e+002, 8.250010e+004
4.352414e+002, 8.259148e+004
4.352931e+002, 8.258789e+004
4.353448e+002, 8.260055e+004
4.353965e+002, 8.262770e+004
4.354483e+002, 8.270822e+004
4.355000e+002, 8.240239e+004
4.355517e+002, 8.201668e+004
4.356035e+002, 8.253885e+004
4.356552e+002, 8.271711e+004
4.357069e+002, 8.243729e+004
4.357586e+002, 8.235248e+004
4.358104e+002, 8.245156e+004
4.358621e+002, 8.238630e+004
4.359138e+002, 8.272229e+004
4.359655e+002, 8.262127e+004
4.360173e+002, 8.242170e+004
4.360690e+002, 8.231618e+004
4.361207e+002, 8.215268e+004
4.361724e+002, 8.234707e+004
4.362242e+002, 8.267566e+004
4.362759e+002, 8.225516e+004
4.363276e+002, 8.221870e+004
4.363793e+002, 8.256602e+004
4.364310e+002, 8.226684e+004
4.364828e+002, 8.200190e+004
4.365345e+002, 8.249123e+004
4.365862e+002, 8.235870e+004
4.366379e+002, 8.218434e+004
4.366897e+002, 8.217895e+004
4.367414e+002, 8.215964e+004
4.367931e+002, 8.206640e+004
4.368448e+002, 8.197621e+004
4.368965e+002, 8.167820e+004
4.369483e+002, 8.162163e+004
4.370000e+002, 8.171663e+004
4.370517e+002, 8.168102e+004
4.371035e+002, 8.144247e+004
4.371552e+002, 8.137539e+004
4.372069e+002, 8.139820e+004
4.372586e+002, 8.139087e+004
4.373104e+002, 8.141557e+004
4.373621e+002, 8.143547e+004
4.374138e+002, 8.132662e+004
4.374655e+002, 8.161818e+004
4.375173e+002, 8.182291e+004
4.375690e+002, 8.164448e+004
4.376207e+002, 8.130533e+004
4.376724e+002, 8.122427e+004
4.377242e+002, 8.071915e+004
4.377759e+002, 8.087654e+004
4.378276e+002, 8.108925e+004
4.378793e+002, 8.110870e+004
4.379310e+002, 8.158683e+004
4.379828e+002, 8.128382e+004
4.380345e+002, 8.070535e+004
4.380862e+002, 8.071852e+004
4.381379e+002, 8.110112e+004
4.381897e+002, 8.092549e+004
4.382414e+002, 8.085567e+004
4.382931e+002, 8.066911e+004
4.383448e+002, 8.054118e+004
4.383965e+002, 8.072164e+004
4.384483e+002, 8.073208e+004
4.385000e+002, 8.085896e+004
4.385517e+002, 8.106361e+004
4.386035e+002, 8.090415e+004
4.386552e+002, 8.047573e+004
4.387069e+002, 8.050624e+004
4.387586e+002, 8.027595e+004
4.388104e+002, 8.027508e+004
4.388621e+002, 8.073966e+004
4.389138e+002, 8.089815e+004
4.389655e+002, 8.054717e+004
4.390173e+002, 8.029988e+004
4.390690e+002, 8.032784e+004
4.391207e+002, 8.041788e+004
4.391724e+002, 8.065004e+004
4.392242e+002, 8.040848e+004
4.392759e+002, 8.025384e+004
4.393276e+002, 8.021276e+004
4.393793e+002, 8.036655e+004
4.394310e+002, 8.028630e+004
4.394828e+002, 8.017777e+004
4.395345e+002, 8.012641e+004
4.395862e+002, 8.011743e+004
4.396379e+002, 7.995081e+004
4.396897e+002, 7.986203e+004
4.397414e+002, 7.977871e+004
4.397931e+002, 8.030508e+004
4.398448e+002, 8.019991e+004
4.398965e+002, 7.983591e+004
4.399483e+002, 7.988928e+004
4.400000e+002, 7.990985e+004
4.400517e+002, 7.968063e+004
4.401035e+002, 8.008196e+004
4.401552e+002, 8.030088e+004
4.402069e+002, 8.037764e+004
4.402586e+002, 7.983925e+004
4.403104e+002, 7.954009e+004
4.403621e+002, 7.963300e+004
4.404138e+002, 7.982972e+004
4.404655e+002, 7.968119e+004
4.405173e+002, 7.933243e+004
4.405690e+002, 7.934282e+004
4.406207e+002, 7.928533e+004
4.406724e+002, 7.939395e+004
4.407242e+002, 7.970477e+004
4.407759e+002, 7.936045e+004
4.408276e+002, 7.927516e+004
4.408793e+002, 7.930562e+004
4.409310e+002, 7.923760e+004
4.409828e+002, 7.917430e+004
4.410345e+002, 7.931002e+004
4.410862e+002, 7.908567e+004
4.411379e+002, 7.893616e+004
4.411897e+002, 7.879787e+004
4.412414e+002, 7.882666e+004
4.412931e+002, 7.890545e+004
4.413448e+002, 7.903806e+004
4.413965e+002, 7.912338e+004
4.414483e+002, 7.875023e+004
4.415000e+002, 7.878431e+004
4.415517e+002, 7.888866e+004
4.416035e+002, 7.879909e+004
4.416552e+002, 7.871442e+004
4.417069e+002, 7.878052e+004
4.417586e+002, 7.856689e+004
4.418104e+002, 7.841445e+004
4.418621e+002, 7.836902e+004
4.419138e+002, 7.845356e+004
4.419655e+002, 7.832198e+004
4.420173e+002, 7.824334e+004
4.420690e+002, 7.849359e+004
4.421207e+002, 7.869550e+004
4.421724e+002, 7.843342e+004
4.422242e+002, 7.826029e+004
4.422759e+002, 7.821227e+004
4.423276e+002, 7.817053e+004
4.423793e+002, 7.805354e+004
4.424310e+002, 7.820186e+004
4.424828e+002, 7.807923e+004
4.425345e+002, 7.820620e+004
4.425862e+002, 7.818473e+004
4.426379e+002, 7.818553e+004
4.426897e+002, 7.806791e+004
4.427414e+002, 7.816009e+004
4.427931e+002, 7.806987e+004
4.428448e+002, 7.808685e+004
4.428965e+002, 7.785533e+004
4.429483e+002, 7.812525e+004
4.430000e+002, 7.851109e+004
4.430517e+002, 7.796961e+004
4.431035e+002, 7.773381e+004
4.431552e+002, 7.772059e+004
4.432069e+002, 7.776212e+004
4.432586e+002, 7.782627e+004
4.433104e+002, 7.800913e+004
4.433621e+002, 7.792663e+004
4.434138e+002, 7.775093e+004
4.434655e+002, 7.773887e+004
4.435173e+002, 7.782195e+004
4.435690e+002, 7.784571e+004
4.436207e+002, 7.766361e+004
4.436724e+002, 7.769835e+004
4.437242e+002, 7.729895e+004
4.437759e+002, 7.738873e+004
4.438276e+002, 7.778341e+004
4.438793e+002, 7.748269e+004
4.439310e+002, 7.720120e+004
4.439828e+002, 7.750227e+004
4.440345e+002, 7.758634e+004
4.440862e+002, 7.793079e+004
4.441379e+002, 7.836521e+004
4.441897e+002, 7.802612e+004
4.442414e+002, 7.798084e+004
4.442931e+002, 7.776460e+004
4.443448e+002, 7.719928e+004
4.443965e+002, 7.695624e+004
4.444483e+002, 7.727131e+004
4.445000e+002, 7.726577e+004
4.445517e+002, 7.723406e+004
4.446035e+002, 7.755048e+004
4.446552e+002, 7.727487e+004
4.447069e+002, 7.723413e+004
4.447586e+002, 7.701498e+004
4.448104e+002, 7.641755e+004
4.448621e+002, 7.660779e+004
4.449138e+002, 7.711805e+004
4.449655e+002, 7.670308e+004
4.450173e+002, 7.669359e+004
4.450690e+002, 7.689132e+004
4.451207e+002, 7.673779e+004
4.451724e+002, 7.653155e+004
4.452242e+002, 7.670110e+004
4.452759e+002, 7.712865e+004
4.453276e+002, 7.697938e+004
4.453793e+002, 7.706228e+004
4.454310e+002, 7.661827e+004
4.454828e+002, 7.646785e+004
4.455345e+002, 7.659061e+004
4.455862e+002, 7.658882e+004
4.456379e+002, 7.661473e+004
4.456897e+002, 7.636200e+004
4.457414e+002, 7.632597e+004
4.457931e+002, 7.640417e+004
4.458448e+002, 7.644786e+004
4.458965e+002, 7.632927e+004
4.459483e+002, 7.614398e+004
4.460000e+002, 7.592753e+004
4.460517e+002, 7.602641e+004
4.461035e+002, 7.612454e+004
4.461552e+002, 7.626667e+004
4.462069e+002, 7.583214e+004
4.462586e+002, 7.585603e+004
4.463104e+002, 7.648678e+004
4.463621e+002, 7.639403e+004
4.464138e+002, 7.619095e+004
4.464655e+002, 7.660795e+004
4.465173e+002, 7.681934e+004
4.465690e+002, 7.624462e+004
4.466207e+002, 7.627809e+004
4.466724e+002, 7.630741e+004
4.467242e+002, 7.632016e+004
4.467759e+002, 7.626556e+004
4.468276e+002, 7.618864e+004
4.468793e+002, 7.607368e+004
4.469310e+002, 7.610946e+004
4.469828e+002, 7.602998e+004
4.470345e+002, 7.601120e+004
4.470862e+002, 7.580305e+004
4.471379e+002, 7.561897e+004
4.471897e+002, 7.544213e+004
4.472414e+002, 7.573399e+004
4.472931e+002, 7.587775e+004
4.473448e+002, 7.550610e+004
4.473965e+002, 7.558557e+004
4.474483e+002, 7.532171e+004
4.475000e+002, 7.531143e+004
4.475517e+002, 7.530949e+004
4.476035e+002, 7.529071e+004
4.476552e+002, 7.521454e+004
4.477069e+002, 7.546452e+004
4.477586e+002, 7.559652e+004
4.478104e+002, 7.553214e+004
4.478621e+002, 7.575201e+004
4.479138e+002, 7.564733e+004
4.479655e+002, 7.570622e+004
4.480173e+002, 7.546190e+004
4.480690e+002, 7.552433e+004
4.481207e+002, 7.507497e+004
4.481724e+002, 7.478214e+004
4.482242e+002, 7.475599e+004
4.482759e+002, 7.483877e+004
4.483276e+002, 7.496954e+004
4.483793e+002, 7.490273e+004
4.484310e+002, 7.457621e+004
4.484828e+002, 7.486856e+004
4.485345e+002, 7.504564e+004
4.485862e+002, 7.472246e+004
4.486379e+002, 7.475685e+004
4.486897e+002, 7.472630e+004
4.487414e+002, 7.461174e+004
4.487931e+002, 7.458413e+004
4.488448e+002, 7.447929e+004
4.488965e+002, 7.436295e+004
4.489483e+002, 7.439021e+004
4.490000e+002, 7.431091e+004
4.490517e+002, 7.433863e+004
4.491035e+002, 7.455642e+004
4.491552e+002, 7.449598e+004
4.492069e+002, 7.409349e+004
4.492586e+002, 7.439941e+004
4.493104e+002, 7.481841e+004
4.493621e+002, 7.455473e+004
4.494138e+002, 7.462868e+004
4.494655e+002, 7.435834e+004
4.495173e+002, 7.392083e+004
4.495690e+002, 7.398693e+004
4.496207e+002, 7.427285e+004
4.496724e+002, 7.430286e+004
4.497242e+002, 7.419189e+004
4.497759e+002, 7.422561e+004
4.498276e+002, 7.412577e+004
4.498793e+002, 7.448359e+004
4.499310e+002, 7.435560e+004
4.499828e+002, 7.426875e+004
4.500345e+002, 7.430577e+004
4.500862e+002, 7.410497e+004
4.501379e+002, 7.369969e+004
4.501897e+002, 7.387846e+004
4.502414e+002, 7.383132e+004
4.502931e+002, 7.351834e+004
4.503448e+002, 7.375690e+004
4.503965e+002, 7.368473e+004
4.504483e+002, 7.357906e+004
4.505000e+002, 7.367917e+004
4.505517e+002, 7.386289e+004
4.506035e+002, 7.388927e+004
4.506552e+002, 7.401902e+004
4.507069e+002, 7.407947e+004
4.507586e+002, 7.428632e+004
4.508104e+002, 7.410597e+004
4.508621e+002, 7.424497e+004
4.509138e+002, 7.391897e+004
4.509655e+002, 7.384866e+004
4.510173e+002, 7.356247e+004
4.510690e+002, 7.364063e+004
4.511207e+002, 7.355422e+004
4.511724e+002, 7.352999e+004
4.512242e+002, 7.295265e+004
4.512759e+002, 7.317644e+004
4.513276e+002, 7.330421e+004
4.513793e+002, 7.337773e+004
4.514310e+002, 7.376595e+004
4.514828e+002, 7.376723e+004
4.515345e+002, 7.319891e+004
4.515862e+002, 7.307605e+004
4.516379e+002, 7.280630e+004
4.516897e+002, 7.310654e+004
4.517414e+002, 7.312542e+004
4.517931e+002, 7.295941e+004
4.518448e+002, 7.272556e+004
4.518965e+002, 7.291774e+004
4.519483e+002, 7.285450e+004
4.520000e+002, 7.246282e+004
4.520517e+002, 7.277440e+004
4.521035e+002, 7.289066e+004
4.521552e+002, 7.297507e+004
4.522069e+002, 7.322262e+004
4.522586e+002, 7.319172e+004
4.523104e+002, 7.280372e+004
4.523621e+002, 7.248084e+004
4.524138e+002, 7.229189e+004
4.524655e+002, 7.247817e+004
4.525173e+002, 7.255543e+004
4.525690e+002, 7.260334e+004
4.526207e+002, 7.234438e+004
4.526724e+002, 7.237640e+004
4.527242e+002, 7.244576e+004
4.527759e+002, 7.218290e+004
4.528276e+002, 7.224889e+004
4.528793e+002, 7.235333e+004
4.529310e+002, 7.235675e+004
4.529828e+002, 7.281539e+004
4.530345e+002, 7.287094e+004
4.530862e+002, 7.272152e+004
4.531379e+002, 7.259959e+004
4.531897e+002, 7.242270e+004
4.532414e+002, 7.223413e+004
4.532931e+002, 7.254089e+004
4.533448e+002, 7.261573e+004
4.533965e+002, 7.240821e+004
4.534483e+002, 7.258939e+004
4.535000e+002, 7.263855e+004
4.535517e+002, 7.249636e+004
4.536035e+002, 7.242022e+004
4.536552e+002, 7.223226e+004
4.537069e+002, 7.214080e+004
4.537586e+002, 7.217654e+004
4.538104e+002, 7.192072e+004
4.538621e+002, 7.170943e+004
4.539138e+002, 7.165911e+004
4.539655e+002, 7.186566e+004
4.540173e+002, 7.179416e+004
4.540690e+002, 7.184913e+004
4.541207e+002, 7.191788e+004
4.541724e+002, 7.176092e+004
4.542242e+002, 7.170248e+004
4.542759e+002, 7.148290e+004
4.543276e+002, 7.139081e+004
4.543793e+002, 7.157855e+004
4.544310e+002, 7.182522e+004
4.544828e+002, 7.194042e+004
4.545345e+002, 7.158034e+004
4.545862e+002, 7.146116e+004
4.546379e+002, 7.179702e+004
4.546897e+002, 7.183995e+004
4.547414e+002, 7.139453e+004
4.547931e+002, 7.130148e+004
4.548448e+002, 7.136657e+004
4.548965e+002, 7.138985e+004
4.549483e+002, 7.146938e+004
4.550000e+002, 7.163738e+004
4.550517e+002, 7.143649e+004
4.551035e+002, 7.119512e+004
4.551552e+002, 7.160580e+004
4.552069e+002, 7.157714e+004
4.552586e+002, 7.151804e+004
4.553104e+002, 7.172999e+004
4.553621e+002, 7.177694e+004
4.554138e+002, 7.137068e+004
4.554655e+002, 7.138103e+004
4.555173e+002, 7.114863e+004
4.555690e+002, 7.082938e+004
4.556207e+002, 7.082545e+004
4.556724e+002, 7.110425e+004
4.557242e+002, 7.103420e+004
4.557759e+002, 7.124791e+004
4.558276e+002, 7.096807e+004
4.558793e+002, 7.115873e+004
4.559310e+002, 7.116541e+004
4.559828e+002, 7.082927e+004
4.560345e+002, 7.078479e+004
4.560862e+002, 7.067196e+004
4.561379e+002, 7.059947e+004
4.561897e+002, 7.045177e+004
4.562414e+002, 7.048302e+004
4.562931e+002, 7.031957e+004
4.563448e+002, 7.036686e+004
4.563965e+002, 7.037847e+004
4.564483e+002, 7.038989e+004
4.565000e+002, 7.024426e+004
4.565517e+002, 7.045607e+004
4.566035e+002, 7.049792e+004
4.566552e+002, 7.041584e+004
4.567069e+002, 7.084520e+004
4.567586e+002, 7.100500e+004
4.568104e+002, 7.059813e+004
4.568621e+002, 7.020835e+004
4.569138e+002, 7.011832e+004
4.569655e+002, 7.023140e+004
4.570173e+002, 7.052073e+004
4.570690e+002, 7.031160e+004
4.571207e+002, 7.013585e+004
4.571724e+002, 6.995797e+004
4.572242e+002, 6.990322e+004
4.572759e+002, 6.991152e+004
4.573276e+002, 7.004915e+004
4.573793e+002, 7.003397e+004
4.574310e+002, 7.026052e+004
4.574828e+002, 7.019927e+004
4.575345e+002, 7.013195e+004
4.575862e+002, 6.992458e+004
4.576379e+002, 7.016032e+004
4.576897e+002, 7.018196e+004
4.577414e+002, 6.969020e+004
4.577931e+002, 6.976598e+004
4.578448e+002, 6.975934e+004
4.578965e+002, 6.995279e+004
4.579483e+002, 6.987344e+004
4.580000e+002, 6.969072e+004
4.580517e+002, 6.940569e+004
4.581035e+002, 6.975863e+004
4.581552e+002, 6.973945e+004
4.582069e+002, 6.964245e+004
4.582586e+002, 6.974653e+004
4.583104e+002, 6.967392e+004
4.583621e+002, 6.955633e+004
4.584138e+002, 6.990439e+004
4.584655e+002, 6.971128e+004
4.585173e+002, 6.951152e+004
4.585690e+002, 6.957414e+004
4.586207e+002, 6.955224e+004
4.586724e+002, 6.951852e+004
4.587242e+002, 6.965204e+004
4.587759e+002, 6.949680e+004
4.588276e+002, 6.930727e+004
4.588793e+002, 6.943581e+004
4.589310e+002, 6.940341e+004
4.589828e+002, 6.892314e+004
4.590345e+002, 6.896180e+004
4.590862e+002, 6.886230e+004
4.591379e+002, 6.881403e+004
4.591897e+002, 6.887930e+004
4.592414e+002, 6.867880e+004
4.592931e+002, 6.857177e+004
4.593448e+002, 6.898238e+004
4.593965e+002, 6.881559e+004
4.594483e+002, 6.846378e+004
4.595000e+002, 6.867509e+004
4.595517e+002, 6.900010e+004
4.596035e+002, 6.880197e+004
4.596552e+002, 6.905327e+004
4.597069e+002, 6.880229e+004
4.597586e+002, 6.879743e+004
4.598104e+002, 6.863779e+004
4.598621e+002, 6.822760e+004
4.599138e+002, 6.801702e+004
4.599655e+002, 6.798312e+004
4.600173e+002, 6.791394e+004
4.600690e+002, 6.798299e+004
4.601207e+002, 6.802982e+004
4.601724e+002, 6.849334e+004
4.602242e+002, 6.833730e+004
4.602759e+002, 6.882124e+004
4.603276e+002, 6.866924e+004
4.603793e+002, 6.831126e+004
4.604310e+002, 6.829211e+004
4.604828e+002, 6.845541e+004
4.605345e+002, 6.847710e+004
4.605862e+002, 6.853409e+004
4.606379e+002, 6.834370e+004
4.606897e+002, 6.805522e+004
4.607414e+002, 6.842784e+004
4.607931e+002, 6.853945e+004
4.608448e+002, 6.798533e+004
4.608965e+002, 6.805618e+004
4.609483e+002, 6.798966e+004
4.610000e+002, 6.810917e+004
4.610517e+002, 6.774147e+004
4.611035e+002, 6.747596e+004
4.611552e+002, 6.751211e+004
4.612069e+002, 6.782977e+004
4.612586e+002, 6.785555e+004
4.613104e+002, 6.781435e+004
4.613621e+002, 6.786449e+004
4.614138e+002, 6.753507e+004
4.614655e+002, 6.776264e+004
4.615173e+002, 6.778204e+004
4.615690e+002, 6.784788e+004
4.616207e+002, 6.780475e+004
4.616724e+002, 6.799573e+004
4.617242e+002, 6.785170e+004
4.617759e+002, 6.757270e+004
4.618276e+002, 6.761758e+004
4.618793e+002, 6.800688e+004
4.619310e+002, 6.769182e+004
4.619828e+002, 6.771782e+004
4.620345e+002, 6.758341e+004
4.620862e+002, 6.749039e+004
4.621379e+002, 6.767349e+004
4.621897e+002, 6.740067e+004
4.622414e+002, 6.706824e+004
4.622931e+002, 6.738658e+004
4.623448e+002, 6.714842e+004
4.623965e+002, 6.667953e+004
4.624483e+002, 6.681380e+004
4.625000e+002, 6.713926e+004
4.625517e+002, 6.696078e+004
4.626035e+002, 6.705986e+004
4.626552e+002, 6.707552e+004
4.627069e+002, 6.705064e+004
4.627586e+002, 6.705884e+004
4.628104e+002, 6.703731e+004
4.628621e+002, 6.709314e+004
4.629138e+002, 6.733675e+004
4.629655e+002, 6.731962e+004
4.630173e+002, 6.689530e+004
4.630690e+002, 6.676303e+004
4.631207e+002, 6.626104e+004
4.631724e+002, 6.638759e+004
4.632242e+002, 6.655773e+004
4.632759e+002, 6.624102e+004
4.633276e+002, 6.634267e+004
4.633793e+002, 6.657873e+004
4.634310e+002, 6.621758e+004
4.634828e+002, 6.613856e+004
4.635345e+002, 6.643209e+004
4.635862e+002, 6.658738e+004
4.636379e+002, 6.636114e+004
4.636897e+002, 6.633338e+004
4.637414e+002, 6.622092e+004
4.637931e+002, 6.628566e+004
4.638448e+002, 6.658391e+004
4.638965e+002, 6.620944e+004
4.639483e+002, 6.623243e+004
4.640000e+002, 6.634245e+004
4.640517e+002, 6.634815e+004
4.641035e+002, 6.604809e+004
4.641552e+002, 6.634642e+004
4.642069e+002, 6.604945e+004
4.642586e+002, 6.597970e+004
4.643104e+002, 6.597773e+004
4.643621e+002, 6.591239e+004
4.644138e+002, 6.576280e+004
4.644655e+002, 6.616059e+004
4.645173e+002, 6.603247e+004
4.645690e+002, 6.608127e+004
4.646207e+002, 6.610730e+004
4.646724e+002, 6.598258e+004
4.647242e+002, 6.555912e+004
4.647759e+002, 6.559877e+004
4.648276e+002, 6.548516e+004
4.648793e+002, 6.565300e+004
4.649310e+002, 6.593482e+004
4.649828e+002, 6.611434e+004
4.650345e+002, 6.572815e+004
4.650862e+002, 6.575724e+004
4.651379e+002, 6.557466e+004
4.651897e+002, 6.537457e+004
4.652414e+002, 6.538997e+004
4.652931e+002, 6.552082e+004
4.653448e+002, 6.550480e+004
4.653965e+002, 6.557369e+004
4.654483e+002, 6.528228e+004
4.655000e+002, 6.513050e+004
4.655517e+002, 6.509138e+004
4.656035e+002, 6.493650e+004
4.656552e+002, 6.481550e+004
4.657069e+002, 6.504809e+004
4.657586e+002, 6.509716e+004
4.658104e+002, 6.521060e+004
4.658621e+002, 6.497395e+004
4.659138e+002, 6.489722e+004
4.659655e+002, 6.482444e+004
4.660173e+002, 6.505333e+004
4.660690e+002, 6.519487e+004
4.661207e+002, 6.484031e+004
4.661724e+002, 6.492913e+004
4.662242e+002, 6.485646e+004
4.662759e+002, 6.464036e+004
4.663276e+002, 6.478274e+004
4.663793e+002, 6.455845e+004
4.664310e+002, 6.444245e+004
4.664828e+002, 6.440313e+004
4.665345e+002, 6.438372e+004
4.665862e+002, 6.437748e+004
4.666379e+002, 6.462367e+004
4.666897e+002, 6.463822e+004
4.667414e+002, 6.425259e+004
4.667931e+002, 6.411058e+004
4.668448e+002, 6.402193e+004
4.668965e+002, 6.418233e+004
4.669483e+002, 6.447725e+004
4.670000e+002, 6.453461e+004
4.670517e+002, 6.447695e+004
4.671035e+002, 6.430955e+004
4.671552e+002, 6.442771e+004
4.672069e+002, 6.439386e+004
4.672586e+002, 6.444783e+004
4.673104e+002, 6.449163e+004
4.673621e+002, 6.423005e+004
4.674138e+002, 6.430080e+004
4.674655e+002, 6.418088e+004
4.675173e+002, 6.406799e+004
4.675690e+002, 6.416338e+004
4.676207e+002, 6.428541e+004
4.676724e+002, 6.402362e+004
4.677242e+002, 6.416797e+004
4.677759e+002, 6.405295e+004
4.678276e+002, 6.414423e+004
4.678793e+002, 6.457843e+004
4.679310e+002, 6.465966e+004
4.679828e+002, 6.420425e+004
4.680345e+002, 6.392721e+004
4.680862e+002, 6.371674e+004
4.681379e+002, 6.368596e+004
4.681897e+002, 6.377473e+004
4.682414e+002, 6.390062e+004
4.682931e+002, 6.367003e+004
4.683448e+002, 6.385736e+004
4.683965e+002, 6.362405e+004
4.684483e+002, 6.354555e+004
4.685000e+002, 6.375866e+004
4.685517e+002, 6.357744e+004
4.686035e+002, 6.312029e+004
4.686552e+002, 6.361059e+004
4.687069e+002, 6.342930e+004
4.687586e+002, 6.336784e+004
4.688104e+002, 6.342978e+004
4.688621e+002, 6.343659e+004
4.689138e+002, 6.335709e+004
4.689655e+002, 6.352582e+004
4.690173e+002, 6.358753e+004
4.690690e+002, 6.352456e+004
4.691207e+002, 6.371878e+004
4.691724e+002, 6.360186e+004
4.692242e+002, 6.314150e+004
4.692759e+002, 6.333774e+004
4.693276e+002, 6.371222e+004
4.693793e+002, 6.356029e+004
4.694310e+002, 6.317010e+004
4.694828e+002, 6.296761e+004
4.695345e+002, 6.332397e+004
4.695862e+002, 6.382205e+004
4.696379e+002, 6.355336e+004
4.696897e+002, 6.330120e+004
4.697414e+002, 6.345795e+004
4.697931e+002, 6.310461e+004
4.698448e+002, 6.279086e+004
4.698965e+002, 6.321487e+004
4.699483e+002, 6.338233e+004
4.700000e+002, 6.311794e+004
4.700517e+002, 6.287146e+004
4.701035e+002, 6.272692e+004
4.701552e+002, 6.270983e+004
4.702069e+002, 6.256526e+004
4.702586e+002, 6.291468e+004
4.703104e+002, 6.297403e+004
4.703621e+002, 6.296155e+004
4.704138e+002, 6.270457e+004
4.704655e+002, 6.250636e+004
4.705173e+002, 6.250010e+004
4.705690e+002, 6.251045e+004
4.706207e+002, 6.235365e+004
4.706724e+002, 6.245473e+004
4.707242e+002, 6.232539e+004
4.707759e+002, 6.211268e+004
4.708276e+002, 6.205578e+004
4.708793e+002, 6.242980e+004
4.709310e+002, 6.229180e+004
4.709828e+002, 6.234071e+004
4.710345e+002, 6.233829e+004
4.710862e+002, 6.229052e+004
4.711379e+002, 6.261141e+004
4.711897e+002, 6.241577e+004
4.712414e+002, 6.234768e+004
4.712931e+002, 6.236230e+004
4.713448e+002, 6.204651e+004
4.713965e+002, 6.173259e+004
4.714483e+002, 6.174353e+004
4.715000e+002, 6.180537e+004
4.715517e+002, 6.197779e+004
4.716035e+002, 6.234271e+004
4.716552e+002, 6.215988e+004
4.717069e+002, 6.187180e+004
4.717586e+002, 6.227988e+004
4.718104e+002, 6.215427e+004
4.718621e+002, 6.175999e+004
4.719138e+002, 6.189681e+004
4.719655e+002, 6.178614e+004
4.720173e+002, 6.171424e+004
4.720690e+002, 6.179458e+004
4.721207e+002, 6.168570e+004
4.721724e+002, 6.177156e+004
4.722242e+002, 6.182512e+004
4.722759e+002, 6.181907e+004
4.723276e+002, 6.156432e+004
4.723793e+002, 6.163878e+004
4.724310e+002, 6.153867e+004
4.724828e+002, 6.124348e+004
4.725345e+002, 6.127913e+004
4.725862e+002, 6.133383e+004
4.726379e+002, 6.119016e+004
4.726897e+002, 6.116921e+004
4.727414e+002, 6.106377e+004
4.727931e+002, 6.092845e+004
4.728448e+002, 6.100411e+004
4.728965e+002, 6.108317e+004
4.729483e+002, 6.107143e+004
4.730000e+002, 6.123681e+004
4.730518e+002, 6.115148e+004
4.731035e+002, 6.084235e+004
4.731552e+002, 6.081395e+004
4.732069e+002, 6.096688e+004
4.732586e+002, 6.103887e+004
4.733104e+002, 6.116792e+004
4.733621e+002, 6.077271e+004
4.734138e+002, 6.065098e+004
4.734655e+002, 6.083567e+004
4.735173e+002, 6.089204e+004
4.735690e+002, 6.078221e+004
4.736207e+002, 6.093135e+004
4.736724e+002, 6.095103e+004
4.737242e+002, 6.076332e+004
4.737759e+002, 6.086471e+004
4.738276e+002, 6.085351e+004
4.738793e+002, 6.056685e+004
4.739310e+002, 6.060176e+004
4.739828e+002, 6.074228e+004
4.740345e+002, 6.101117e+004
4.740862e+002, 6.124016e+004
4.741379e+002, 6.097111e+004
4.741897e+002, 6.071416e+004
4.742414e+002, 6.089391e+004
4.742931e+002, 6.080874e+004
4.743448e+002, 6.043589e+004
4.743965e+002, 6.040974e+004
4.744483e+002, 6.050355e+004
4.745000e+002, 6.059226e+004
4.745518e+002, 6.064506e+004
4.746035e+002, 6.054165e+004
4.746552e+002, 6.019615e+004
4.747069e+002, 6.035250e+004
4.747586e+002, 6.033860e+004
4.748104e+002, 6.045562e+004
4.748621e+002, 6.074465e+004
4.749138e+002, 6.041820e+004
4.749655e+002, 6.014745e+004
4.750173e+002, 6.028309e+004
4.750690e+002, 6.036566e+004
4.751207e+002, 5.999764e+004
4.751724e+002, 6.006941e+004
4.752242e+002, 6.017917e+004
4.752759e+002, 6.029769e+004
4.753276e+002, 6.054716e+004
4.753793e+002, 6.017639e+004
4.754310e+002, 5.995737e+004
4.754828e+002, 6.001389e+004
4.755345e+002, 5.986114e+004
4.755862e+002, 5.948767e+004
4.756379e+002, 5.966273e+004
4.756897e+002, 5.980845e+004
4.757414e+002, 5.981442e+004
4.757931e+002, 5.985097e+004
4.758448e+002, 5.962227e+004
4.758965e+002, 5.970912e+004
4.759483e+002, 5.975241e+004
4.760000e+002, 5.962814e+004
4.760518e+002, 5.966885e+004
4.761035e+002, 5.968857e+004
4.761552e+002, 5.945369e+004
4.762069e+002, 5.965778e+004
4.762586e+002, 5.997793e+004
4.763104e+002, 5.997213e+004
4.763621e+002, 5.982082e+004
4.764138e+002, 5.975646e+004
4.764655e+002, 5.977194e+004
4.765173e+002, 5.965236e+004
4.765690e+002, 5.968847e+004
4.766207e+002, 5.945477e+004
4.766724e+002, 5.936537e+004
4.767242e+002, 5.928520e+004
4.767759e+002, 5.928347e+004
4.768276e+002, 5.907543e+004
4.768793e+002, 5.971971e+004
4.769310e+002, 5.951496e+004
4.769828e+002, 5.968858e+004
4.770345e+002, 5.948564e+004
4.770862e+002, 5.933390e+004
4.771379e+002, 5.927480e+004
4.771897e+002, 5.938026e+004
4.772414e+002, 5.934368e+004
4.772931e+002, 5.921671e+004
4.773448e+002, 5.898071e+004
4.773965e+002, 5.892938e+004
4.774483e+002, 5.904752e+004
4.775000e+002, 5.926105e+004
4.775518e+002, 5.910882e+004
4.776035e+002, 5.894037e+004
4.776552e+002, 5.929389e+004
4.777069e+002, 5.926782e+004
4.777586e+002, 5.920261e+004
4.778104e+002, 5.934219e+004
4.778621e+002, 5.899404e+004
4.779138e+002, 5.877081e+004
4.779655e+002, 5.903796e+004
4.780173e+002, 5.937366e+004
4.780690e+002, 5.919549e+004
4.781207e+002, 5.917497e+004
4.781724e+002, 5.896970e+004
4.782242e+002, 5.860238e+004
4.782759e+002, 5.860233e+004
4.783276e+002, 5.883370e+004
4.783793e+002, 5.879571e+004
4.784310e+002, 5.904913e+004
4.784828e+002, 5.857805e+004
4.785345e+002, 5.868475e+004
4.785862e+002, 5.858166e+004
4.786379e+002, 5.864125e+004
4.786897e+002, 5.845573e+004
4.787414e+002, 5.888680e+004
4.787931e+002, 5.887233e+004
4.788448e+002, 5.890494e+004
4.788965e+002, 5.892452e+004
4.789483e+002, 5.888718e+004
4.790000e+002, 5.846734e+004
4.790518e+002, 5.868891e+004
4.791035e+002, 5.818564e+004
4.791552e+002, 5.841239e+004
4.792069e+002, 5.886456e+004
4.792586e+002, 5.892959e+004
4.793104e+002, 5.815593e+004
4.793621e+002, 5.851903e+004
4.794138e+002, 5.851517e+004
4.794655e+002, 5.850189e+004
4.795173e+002, 5.850189e+004
4.795690e+002, 5.850189e+004
4.796207e+002, 5.850189e+004
4.796724e+002, 5.850189e+004
4.797242e+002, 5.850189e+004
4.797759e+002, 5.850189e+004
4.798276e+002, 5.850189e+004
4.798793e+002, 5.850189e+004
#ENDOFDATA   : End Of Data and File