#FORMAT	     : EMSA/MAS Spectral Data File
#VERSION     : 1.0
#TITLE       : EELS #C# 125x 284eV I5 B1 3x3s
#DATE        : 
#TIME        : 
#OWNER       : Ansgar Donner
#NPOINTS     : 4096
#NCOLUMNS    : 1
#XUNITS      : eV
#YUNITS      : e-
#DATATYPE    : XY
#XPERCHAN    : 5.172414e-002
#OFFSET      : 1.780690e+002
#SIGNALTYPE  : ELS
#BEAMKV      : 200000.000000
#MAGCAM      : 100000.000000
#EMISSION    : 0.000000
#PROBECUR    : 0.000000
#BEAMDIAM    : 0.000000
#SPECTRUM    : Spectral Data Starts Here
1.780690e+002, 1.675984e+005
1.781207e+002, 1.675984e+005
1.781724e+002, 1.675984e+005
1.782241e+002, 1.675984e+005
1.782759e+002, 1.675984e+005
1.783276e+002, 1.675984e+005
1.783793e+002, 1.675984e+005
1.784310e+002, 1.675984e+005
1.784828e+002, 1.675984e+005
1.785345e+002, 1.675984e+005
1.785862e+002, 1.675984e+005
1.786379e+002, 1.675422e+005
1.786897e+002, 1.676868e+005
1.787414e+002, 1.677983e+005
1.787931e+002, 1.675838e+005
1.788448e+002, 1.675917e+005
1.788966e+002, 1.675275e+005
1.789483e+002, 1.673969e+005
1.790000e+002, 1.672031e+005
1.790517e+002, 1.671091e+005
1.791035e+002, 1.670953e+005
1.791552e+002, 1.668543e+005
1.792069e+002, 1.672295e+005
1.792586e+002, 1.673622e+005
1.793103e+002, 1.672512e+005
1.793621e+002, 1.670326e+005
1.794138e+002, 1.663650e+005
1.794655e+002, 1.660402e+005
1.795172e+002, 1.659068e+005
1.795690e+002, 1.658777e+005
1.796207e+002, 1.659599e+005
1.796724e+002, 1.657730e+005
1.797241e+002, 1.656912e+005
1.797759e+002, 1.657835e+005
1.798276e+002, 1.657041e+005
1.798793e+002, 1.652832e+005
1.799310e+002, 1.651735e+005
1.799828e+002, 1.653036e+005
1.800345e+002, 1.651240e+005
1.800862e+002, 1.648678e+005
1.801379e+002, 1.647374e+005
1.801897e+002, 1.644433e+005
1.802414e+002, 1.645522e+005
1.802931e+002, 1.644999e+005
1.803448e+002, 1.639682e+005
1.803966e+002, 1.636174e+005
1.804483e+002, 1.636241e+005
1.805000e+002, 1.636606e+005
1.805517e+002, 1.634434e+005
1.806035e+002, 1.633128e+005
1.806552e+002, 1.632093e+005
1.807069e+002, 1.631158e+005
1.807586e+002, 1.632817e+005
1.808103e+002, 1.632113e+005
1.808621e+002, 1.631902e+005
1.809138e+002, 1.631646e+005
1.809655e+002, 1.628644e+005
1.810172e+002, 1.629339e+005
1.810690e+002, 1.628336e+005
1.811207e+002, 1.623949e+005
1.811724e+002, 1.621539e+005
1.812241e+002, 1.620544e+005
1.812759e+002, 1.617591e+005
1.813276e+002, 1.619267e+005
1.813793e+002, 1.624655e+005
1.814310e+002, 1.619884e+005
1.814828e+002, 1.615406e+005
1.815345e+002, 1.616264e+005
1.815862e+002, 1.614945e+005
1.816379e+002, 1.606801e+005
1.816897e+002, 1.607151e+005
1.817414e+002, 1.607585e+005
1.817931e+002, 1.605448e+005
1.818448e+002, 1.604544e+005
1.818966e+002, 1.600606e+005
1.819483e+002, 1.601872e+005
1.820000e+002, 1.603916e+005
1.820517e+002, 1.603363e+005
1.821035e+002, 1.602795e+005
1.821552e+002, 1.599382e+005
1.822069e+002, 1.595965e+005
1.822586e+002, 1.594057e+005
1.823103e+002, 1.592507e+005
1.823621e+002, 1.590820e+005
1.824138e+002, 1.593452e+005
1.824655e+002, 1.595700e+005
1.825172e+002, 1.591787e+005
1.825690e+002, 1.591858e+005
1.826207e+002, 1.589666e+005
1.826724e+002, 1.587532e+005
1.827241e+002, 1.586738e+005
1.827759e+002, 1.588280e+005
1.828276e+002, 1.584847e+005
1.828793e+002, 1.583588e+005
1.829310e+002, 1.584592e+005
1.829828e+002, 1.580215e+005
1.830345e+002, 1.572215e+005
1.830862e+002, 1.570003e+005
1.831379e+002, 1.565993e+005
1.831897e+002, 1.568649e+005
1.832414e+002, 1.573486e+005
1.832931e+002, 1.575323e+005
1.833448e+002, 1.573530e+005
1.833966e+002, 1.568816e+005
1.834483e+002, 1.564260e+005
1.835000e+002, 1.565402e+005
1.835517e+002, 1.565633e+005
1.836035e+002, 1.560958e+005
1.836552e+002, 1.556258e+005
1.837069e+002, 1.555640e+005
1.837586e+002, 1.559213e+005
1.838103e+002, 1.561255e+005
1.838621e+002, 1.558608e+005
1.839138e+002, 1.553336e+005
1.839655e+002, 1.551769e+005
1.840172e+002, 1.551842e+005
1.840690e+002, 1.551849e+005
1.841207e+002, 1.550805e+005
1.841724e+002, 1.548638e+005
1.842241e+002, 1.543951e+005
1.842759e+002, 1.545258e+005
1.843276e+002, 1.544921e+005
1.843793e+002, 1.541591e+005
1.844310e+002, 1.541223e+005
1.844828e+002, 1.541497e+005
1.845345e+002, 1.538922e+005
1.845862e+002, 1.535877e+005
1.846379e+002, 1.537108e+005
1.846897e+002, 1.539587e+005
1.847414e+002, 1.538692e+005
1.847931e+002, 1.534915e+005
1.848448e+002, 1.534741e+005
1.848966e+002, 1.533680e+005
1.849483e+002, 1.532589e+005
1.850000e+002, 1.532059e+005
1.850517e+002, 1.529092e+005
1.851035e+002, 1.531410e+005
1.851552e+002, 1.531216e+005
1.852069e+002, 1.531455e+005
1.852586e+002, 1.531145e+005
1.853103e+002, 1.527792e+005
1.853621e+002, 1.524837e+005
1.854138e+002, 1.522978e+005
1.854655e+002, 1.522372e+005
1.855172e+002, 1.519423e+005
1.855690e+002, 1.520820e+005
1.856207e+002, 1.518245e+005
1.856724e+002, 1.513225e+005
1.857241e+002, 1.514494e+005
1.857759e+002, 1.513418e+005
1.858276e+002, 1.510349e+005
1.858793e+002, 1.513072e+005
1.859310e+002, 1.513572e+005
1.859828e+002, 1.510064e+005
1.860345e+002, 1.508676e+005
1.860862e+002, 1.507475e+005
1.861379e+002, 1.505678e+005
1.861897e+002, 1.506016e+005
1.862414e+002, 1.506671e+005
1.862931e+002, 1.508376e+005
1.863448e+002, 1.505440e+005
1.863966e+002, 1.500576e+005
1.864483e+002, 1.501382e+005
1.865000e+002, 1.499524e+005
1.865517e+002, 1.498000e+005
1.866035e+002, 1.497587e+005
1.866552e+002, 1.498880e+005
1.867069e+002, 1.495763e+005
1.867586e+002, 1.494461e+005
1.868103e+002, 1.494214e+005
1.868621e+002, 1.494942e+005
1.869138e+002, 1.493157e+005
1.869655e+002, 1.492223e+005
1.870172e+002, 1.489327e+005
1.870690e+002, 1.491843e+005
1.871207e+002, 1.489371e+005
1.871724e+002, 1.488380e+005
1.872241e+002, 1.487321e+005
1.872759e+002, 1.487010e+005
1.873276e+002, 1.482508e+005
1.873793e+002, 1.479979e+005
1.874310e+002, 1.481988e+005
1.874828e+002, 1.482528e+005
1.875345e+002, 1.483325e+005
1.875862e+002, 1.480414e+005
1.876379e+002, 1.471847e+005
1.876897e+002, 1.471454e+005
1.877414e+002, 1.471833e+005
1.877931e+002, 1.471177e+005
1.878448e+002, 1.469386e+005
1.878966e+002, 1.469401e+005
1.879483e+002, 1.465266e+005
1.880000e+002, 1.467318e+005
1.880517e+002, 1.470045e+005
1.881035e+002, 1.470132e+005
1.881552e+002, 1.469442e+005
1.882069e+002, 1.467640e+005
1.882586e+002, 1.465153e+005
1.883103e+002, 1.465115e+005
1.883621e+002, 1.463687e+005
1.884138e+002, 1.459130e+005
1.884655e+002, 1.455963e+005
1.885172e+002, 1.459398e+005
1.885690e+002, 1.456025e+005
1.886207e+002, 1.456256e+005
1.886724e+002, 1.454719e+005
1.887241e+002, 1.446779e+005
1.887759e+002, 1.446492e+005
1.888276e+002, 1.445767e+005
1.888793e+002, 1.444085e+005
1.889310e+002, 1.441613e+005
1.889828e+002, 1.446980e+005
1.890345e+002, 1.446633e+005
1.890862e+002, 1.447411e+005
1.891379e+002, 1.443993e+005
1.891897e+002, 1.441366e+005
1.892414e+002, 1.438753e+005
1.892931e+002, 1.438626e+005
1.893448e+002, 1.439110e+005
1.893966e+002, 1.438718e+005
1.894483e+002, 1.438204e+005
1.895000e+002, 1.439237e+005
1.895517e+002, 1.436161e+005
1.896035e+002, 1.433785e+005
1.896552e+002, 1.430710e+005
1.897069e+002, 1.427611e+005
1.897586e+002, 1.428132e+005
1.898103e+002, 1.430698e+005
1.898621e+002, 1.429929e+005
1.899138e+002, 1.428649e+005
1.899655e+002, 1.427144e+005
1.900172e+002, 1.423569e+005
1.900690e+002, 1.420662e+005
1.901207e+002, 1.421084e+005
1.901724e+002, 1.420090e+005
1.902241e+002, 1.416453e+005
1.902759e+002, 1.415548e+005
1.903276e+002, 1.412117e+005
1.903793e+002, 1.412864e+005
1.904310e+002, 1.414916e+005
1.904828e+002, 1.417142e+005
1.905345e+002, 1.416343e+005
1.905862e+002, 1.413740e+005
1.906379e+002, 1.412671e+005
1.906897e+002, 1.413757e+005
1.907414e+002, 1.414163e+005
1.907931e+002, 1.408310e+005
1.908448e+002, 1.404870e+005
1.908966e+002, 1.407351e+005
1.909483e+002, 1.405061e+005
1.910000e+002, 1.406123e+005
1.910517e+002, 1.403653e+005
1.911035e+002, 1.400904e+005
1.911552e+002, 1.401418e+005
1.912069e+002, 1.395122e+005
1.912586e+002, 1.394194e+005
1.913103e+002, 1.394719e+005
1.913621e+002, 1.396863e+005
1.914138e+002, 1.399878e+005
1.914655e+002, 1.399707e+005
1.915172e+002, 1.397455e+005
1.915690e+002, 1.396920e+005
1.916207e+002, 1.395792e+005
1.916724e+002, 1.391949e+005
1.917241e+002, 1.388769e+005
1.917759e+002, 1.389971e+005
1.918276e+002, 1.388329e+005
1.918793e+002, 1.386237e+005
1.919310e+002, 1.383025e+005
1.919828e+002, 1.383261e+005
1.920345e+002, 1.384133e+005
1.920862e+002, 1.384115e+005
1.921379e+002, 1.382829e+005
1.921897e+002, 1.381251e+005
1.922414e+002, 1.381844e+005
1.922931e+002, 1.379012e+005
1.923448e+002, 1.373713e+005
1.923966e+002, 1.372180e+005
1.924483e+002, 1.373048e+005
1.925000e+002, 1.375554e+005
1.925517e+002, 1.374423e+005
1.926035e+002, 1.375865e+005
1.926552e+002, 1.375420e+005
1.927069e+002, 1.375037e+005
1.927586e+002, 1.374663e+005
1.928103e+002, 1.372137e+005
1.928621e+002, 1.371106e+005
1.929138e+002, 1.368817e+005
1.929655e+002, 1.367534e+005
1.930172e+002, 1.365682e+005
1.930690e+002, 1.368618e+005
1.931207e+002, 1.366125e+005
1.931724e+002, 1.362360e+005
1.932241e+002, 1.357257e+005
1.932759e+002, 1.358778e+005
1.933276e+002, 1.357022e+005
1.933793e+002, 1.354857e+005
1.934310e+002, 1.357133e+005
1.934828e+002, 1.357084e+005
1.935345e+002, 1.352152e+005
1.935862e+002, 1.352666e+005
1.936379e+002, 1.355281e+005
1.936897e+002, 1.356393e+005
1.937414e+002, 1.354124e+005
1.937931e+002, 1.352653e+005
1.938448e+002, 1.346629e+005
1.938966e+002, 1.346675e+005
1.939483e+002, 1.346758e+005
1.940000e+002, 1.342763e+005
1.940517e+002, 1.345093e+005
1.941035e+002, 1.348278e+005
1.941552e+002, 1.349995e+005
1.942069e+002, 1.344211e+005
1.942586e+002, 1.339477e+005
1.943103e+002, 1.335464e+005
1.943621e+002, 1.337501e+005
1.944138e+002, 1.338693e+005
1.944655e+002, 1.334945e+005
1.945172e+002, 1.329386e+005
1.945690e+002, 1.332165e+005
1.946207e+002, 1.333159e+005
1.946724e+002, 1.334509e+005
1.947241e+002, 1.336204e+005
1.947759e+002, 1.334823e+005
1.948276e+002, 1.330982e+005
1.948793e+002, 1.330558e+005
1.949310e+002, 1.330280e+005
1.949828e+002, 1.331163e+005
1.950345e+002, 1.332332e+005
1.950862e+002, 1.329931e+005
1.951379e+002, 1.330125e+005
1.951897e+002, 1.327059e+005
1.952414e+002, 1.323556e+005
1.952931e+002, 1.319600e+005
1.953448e+002, 1.316017e+005
1.953966e+002, 1.313760e+005
1.954483e+002, 1.320978e+005
1.955000e+002, 1.322236e+005
1.955517e+002, 1.318014e+005
1.956035e+002, 1.317633e+005
1.956552e+002, 1.314929e+005
1.957069e+002, 1.313958e+005
1.957586e+002, 1.315029e+005
1.958103e+002, 1.313703e+005
1.958621e+002, 1.311824e+005
1.959138e+002, 1.312834e+005
1.959655e+002, 1.311760e+005
1.960172e+002, 1.312535e+005
1.960690e+002, 1.308286e+005
1.961207e+002, 1.306445e+005
1.961724e+002, 1.306787e+005
1.962241e+002, 1.306474e+005
1.962759e+002, 1.306347e+005
1.963276e+002, 1.304041e+005
1.963793e+002, 1.302240e+005
1.964310e+002, 1.299109e+005
1.964828e+002, 1.298066e+005
1.965345e+002, 1.299008e+005
1.965862e+002, 1.296237e+005
1.966379e+002, 1.296322e+005
1.966897e+002, 1.294033e+005
1.967414e+002, 1.296460e+005
1.967931e+002, 1.291810e+005
1.968448e+002, 1.284351e+005
1.968966e+002, 1.285473e+005
1.969483e+002, 1.289617e+005
1.970000e+002, 1.290751e+005
1.970517e+002, 1.292457e+005
1.971035e+002, 1.292996e+005
1.971552e+002, 1.291744e+005
1.972069e+002, 1.288945e+005
1.972586e+002, 1.285755e+005
1.973103e+002, 1.283099e+005
1.973621e+002, 1.283697e+005
1.974138e+002, 1.281610e+005
1.974655e+002, 1.284874e+005
1.975172e+002, 1.285991e+005
1.975690e+002, 1.279691e+005
1.976207e+002, 1.274384e+005
1.976724e+002, 1.274996e+005
1.977241e+002, 1.273907e+005
1.977759e+002, 1.273237e+005
1.978276e+002, 1.272639e+005
1.978793e+002, 1.269291e+005
1.979310e+002, 1.272665e+005
1.979828e+002, 1.272684e+005
1.980345e+002, 1.270912e+005
1.980862e+002, 1.272910e+005
1.981379e+002, 1.271000e+005
1.981897e+002, 1.269175e+005
1.982414e+002, 1.269380e+005
1.982931e+002, 1.270216e+005
1.983448e+002, 1.272167e+005
1.983966e+002, 1.268793e+005
1.984483e+002, 1.266421e+005
1.985000e+002, 1.261975e+005
1.985517e+002, 1.260773e+005
1.986035e+002, 1.259569e+005
1.986552e+002, 1.260930e+005
1.987069e+002, 1.261348e+005
1.987586e+002, 1.259340e+005
1.988103e+002, 1.259846e+005
1.988621e+002, 1.261669e+005
1.989138e+002, 1.261164e+005
1.989655e+002, 1.255504e+005
1.990172e+002, 1.251479e+005
1.990690e+002, 1.246997e+005
1.991207e+002, 1.246554e+005
1.991724e+002, 1.250406e+005
1.992241e+002, 1.250583e+005
1.992759e+002, 1.248553e+005
1.993276e+002, 1.247530e+005
1.993793e+002, 1.248584e+005
1.994310e+002, 1.248254e+005
1.994828e+002, 1.246748e+005
1.995345e+002, 1.249848e+005
1.995862e+002, 1.251092e+005
1.996379e+002, 1.249961e+005
1.996897e+002, 1.246856e+005
1.997414e+002, 1.244332e+005
1.997931e+002, 1.241881e+005
1.998448e+002, 1.239352e+005
1.998966e+002, 1.237168e+005
1.999483e+002, 1.236780e+005
2.000000e+002, 1.237360e+005
2.000517e+002, 1.236780e+005
2.001035e+002, 1.236864e+005
2.001552e+002, 1.237840e+005
2.002069e+002, 1.235501e+005
2.002586e+002, 1.233308e+005
2.003103e+002, 1.232906e+005
2.003621e+002, 1.234269e+005
2.004138e+002, 1.231609e+005
2.004655e+002, 1.230738e+005
2.005172e+002, 1.227148e+005
2.005690e+002, 1.224475e+005
2.006207e+002, 1.225855e+005
2.006724e+002, 1.224676e+005
2.007241e+002, 1.225484e+005
2.007759e+002, 1.219837e+005
2.008276e+002, 1.219325e+005
2.008793e+002, 1.220172e+005
2.009310e+002, 1.219644e+005
2.009828e+002, 1.217473e+005
2.010345e+002, 1.217493e+005
2.010862e+002, 1.218008e+005
2.011379e+002, 1.214254e+005
2.011897e+002, 1.216869e+005
2.012414e+002, 1.217201e+005
2.012931e+002, 1.216020e+005
2.013448e+002, 1.213646e+005
2.013966e+002, 1.212128e+005
2.014483e+002, 1.211932e+005
2.015000e+002, 1.216124e+005
2.015517e+002, 1.215726e+005
2.016035e+002, 1.210047e+005
2.016552e+002, 1.206397e+005
2.017069e+002, 1.208555e+005
2.017586e+002, 1.205470e+005
2.018103e+002, 1.202664e+005
2.018621e+002, 1.206471e+005
2.019138e+002, 1.204203e+005
2.019655e+002, 1.201933e+005
2.020172e+002, 1.201624e+005
2.020690e+002, 1.202388e+005
2.021207e+002, 1.202848e+005
2.021724e+002, 1.200904e+005
2.022241e+002, 1.197911e+005
2.022759e+002, 1.199607e+005
2.023276e+002, 1.201466e+005
2.023793e+002, 1.201407e+005
2.024310e+002, 1.199931e+005
2.024828e+002, 1.197214e+005
2.025345e+002, 1.194975e+005
2.025862e+002, 1.193674e+005
2.026379e+002, 1.191751e+005
2.026897e+002, 1.188950e+005
2.027414e+002, 1.188600e+005
2.027931e+002, 1.187001e+005
2.028448e+002, 1.185504e+005
2.028966e+002, 1.185110e+005
2.029483e+002, 1.189492e+005
2.030000e+002, 1.191430e+005
2.030517e+002, 1.190674e+005
2.031035e+002, 1.191297e+005
2.031552e+002, 1.189181e+005
2.032069e+002, 1.186970e+005
2.032586e+002, 1.185177e+005
2.033103e+002, 1.184580e+005
2.033621e+002, 1.186333e+005
2.034138e+002, 1.186575e+005
2.034655e+002, 1.187356e+005
2.035172e+002, 1.185750e+005
2.035690e+002, 1.185161e+005
2.036207e+002, 1.177697e+005
2.036724e+002, 1.173697e+005
2.037241e+002, 1.174323e+005
2.037759e+002, 1.173708e+005
2.038276e+002, 1.174361e+005
2.038793e+002, 1.176553e+005
2.039310e+002, 1.176545e+005
2.039828e+002, 1.175394e+005
2.040345e+002, 1.175350e+005
2.040862e+002, 1.170981e+005
2.041379e+002, 1.169930e+005
2.041897e+002, 1.166250e+005
2.042414e+002, 1.168737e+005
2.042931e+002, 1.170574e+005
2.043448e+002, 1.170747e+005
2.043966e+002, 1.166441e+005
2.044483e+002, 1.163711e+005
2.045000e+002, 1.160332e+005
2.045517e+002, 1.157838e+005
2.046035e+002, 1.159351e+005
2.046552e+002, 1.160654e+005
2.047069e+002, 1.159141e+005
2.047586e+002, 1.158953e+005
2.048103e+002, 1.157250e+005
2.048621e+002, 1.157074e+005
2.049138e+002, 1.162827e+005
2.049655e+002, 1.162878e+005
2.050172e+002, 1.159585e+005
2.050690e+002, 1.157863e+005
2.051207e+002, 1.154260e+005
2.051724e+002, 1.152546e+005
2.052241e+002, 1.151265e+005
2.052759e+002, 1.149038e+005
2.053276e+002, 1.148184e+005
2.053793e+002, 1.151016e+005
2.054310e+002, 1.149002e+005
2.054828e+002, 1.145120e+005
2.055345e+002, 1.147232e+005
2.055862e+002, 1.147297e+005
2.056379e+002, 1.146860e+005
2.056897e+002, 1.144585e+005
2.057414e+002, 1.146043e+005
2.057931e+002, 1.141327e+005
2.058448e+002, 1.135250e+005
2.058966e+002, 1.135274e+005
2.059483e+002, 1.135801e+005
2.060000e+002, 1.137687e+005
2.060517e+002, 1.138301e+005
2.061035e+002, 1.138774e+005
2.061552e+002, 1.135470e+005
2.062069e+002, 1.133664e+005
2.062586e+002, 1.133246e+005
2.063103e+002, 1.133461e+005
2.063621e+002, 1.135901e+005
2.064138e+002, 1.135114e+005
2.064655e+002, 1.132630e+005
2.065172e+002, 1.129966e+005
2.065690e+002, 1.128204e+005
2.066207e+002, 1.130025e+005
2.066724e+002, 1.130683e+005
2.067242e+002, 1.124016e+005
2.067759e+002, 1.121397e+005
2.068276e+002, 1.124576e+005
2.068793e+002, 1.126551e+005
2.069310e+002, 1.125973e+005
2.069828e+002, 1.126619e+005
2.070345e+002, 1.123161e+005
2.070862e+002, 1.119864e+005
2.071379e+002, 1.121233e+005
2.071897e+002, 1.119837e+005
2.072414e+002, 1.117928e+005
2.072931e+002, 1.117141e+005
2.073448e+002, 1.114629e+005
2.073966e+002, 1.114554e+005
2.074483e+002, 1.117327e+005
2.075000e+002, 1.117103e+005
2.075517e+002, 1.114744e+005
2.076035e+002, 1.112448e+005
2.076552e+002, 1.109235e+005
2.077069e+002, 1.109521e+005
2.077586e+002, 1.113593e+005
2.078103e+002, 1.115644e+005
2.078621e+002, 1.111160e+005
2.079138e+002, 1.110041e+005
2.079655e+002, 1.106285e+005
2.080172e+002, 1.102932e+005
2.080690e+002, 1.104976e+005
2.081207e+002, 1.103753e+005
2.081724e+002, 1.102348e+005
2.082242e+002, 1.100639e+005
2.082759e+002, 1.101673e+005
2.083276e+002, 1.098754e+005
2.083793e+002, 1.097450e+005
2.084310e+002, 1.096532e+005
2.084828e+002, 1.099894e+005
2.085345e+002, 1.103512e+005
2.085862e+002, 1.103050e+005
2.086379e+002, 1.102113e+005
2.086897e+002, 1.100000e+005
2.087414e+002, 1.096620e+005
2.087931e+002, 1.096386e+005
2.088448e+002, 1.096616e+005
2.088966e+002, 1.094524e+005
2.089483e+002, 1.091361e+005
2.090000e+002, 1.091698e+005
2.090517e+002, 1.090638e+005
2.091035e+002, 1.091574e+005
2.091552e+002, 1.088116e+005
2.092069e+002, 1.086311e+005
2.092586e+002, 1.087747e+005
2.093103e+002, 1.092057e+005
2.093621e+002, 1.092097e+005
2.094138e+002, 1.092899e+005
2.094655e+002, 1.086675e+005
2.095172e+002, 1.084490e+005
2.095690e+002, 1.085035e+005
2.096207e+002, 1.085937e+005
2.096724e+002, 1.081988e+005
2.097242e+002, 1.081298e+005
2.097759e+002, 1.084205e+005
2.098276e+002, 1.084633e+005
2.098793e+002, 1.083575e+005
2.099310e+002, 1.083089e+005
2.099828e+002, 1.080086e+005
2.100345e+002, 1.079553e+005
2.100862e+002, 1.075997e+005
2.101379e+002, 1.072854e+005
2.101897e+002, 1.073926e+005
2.102414e+002, 1.075082e+005
2.102931e+002, 1.075291e+005
2.103448e+002, 1.074792e+005
2.103966e+002, 1.075560e+005
2.104483e+002, 1.073190e+005
2.105000e+002, 1.072074e+005
2.105517e+002, 1.069384e+005
2.106035e+002, 1.065351e+005
2.106552e+002, 1.063251e+005
2.107069e+002, 1.066909e+005
2.107586e+002, 1.064954e+005
2.108103e+002, 1.064951e+005
2.108621e+002, 1.064660e+005
2.109138e+002, 1.066277e+005
2.109655e+002, 1.064572e+005
2.110172e+002, 1.064331e+005
2.110690e+002, 1.059123e+005
2.111207e+002, 1.056802e+005
2.111724e+002, 1.057921e+005
2.112242e+002, 1.055378e+005
2.112759e+002, 1.054827e+005
2.113276e+002, 1.057178e+005
2.113793e+002, 1.057578e+005
2.114310e+002, 1.058908e+005
2.114828e+002, 1.057496e+005
2.115345e+002, 1.054671e+005
2.115862e+002, 1.055185e+005
2.116379e+002, 1.054749e+005
2.116897e+002, 1.049866e+005
2.117414e+002, 1.052272e+005
2.117931e+002, 1.051452e+005
2.118448e+002, 1.050791e+005
2.118966e+002, 1.053418e+005
2.119483e+002, 1.055301e+005
2.120000e+002, 1.054341e+005
2.120517e+002, 1.051248e+005
2.121035e+002, 1.048421e+005
2.121552e+002, 1.049232e+005
2.122069e+002, 1.046095e+005
2.122586e+002, 1.045561e+005
2.123103e+002, 1.044859e+005
2.123621e+002, 1.044017e+005
2.124138e+002, 1.044276e+005
2.124655e+002, 1.042674e+005
2.125172e+002, 1.044641e+005
2.125690e+002, 1.045636e+005
2.126207e+002, 1.042786e+005
2.126724e+002, 1.041179e+005
2.127242e+002, 1.038310e+005
2.127759e+002, 1.032140e+005
2.128276e+002, 1.032371e+005
2.128793e+002, 1.030901e+005
2.129310e+002, 1.028393e+005
2.129828e+002, 1.030964e+005
2.130345e+002, 1.028949e+005
2.130862e+002, 1.027563e+005
2.131379e+002, 1.026963e+005
2.131897e+002, 1.028083e+005
2.132414e+002, 1.027985e+005
2.132931e+002, 1.028789e+005
2.133448e+002, 1.030013e+005
2.133966e+002, 1.028185e+005
2.134483e+002, 1.027541e+005
2.135000e+002, 1.027548e+005
2.135517e+002, 1.023879e+005
2.136035e+002, 1.021950e+005
2.136552e+002, 1.020590e+005
2.137069e+002, 1.018184e+005
2.137586e+002, 1.019559e+005
2.138103e+002, 1.017827e+005
2.138621e+002, 1.016435e+005
2.139138e+002, 1.017873e+005
2.139655e+002, 1.019875e+005
2.140172e+002, 1.017752e+005
2.140690e+002, 1.016046e+005
2.141207e+002, 1.017905e+005
2.141724e+002, 1.016490e+005
2.142242e+002, 1.017853e+005
2.142759e+002, 1.015869e+005
2.143276e+002, 1.017211e+005
2.143793e+002, 1.016909e+005
2.144310e+002, 1.019760e+005
2.144828e+002, 1.015478e+005
2.145345e+002, 1.011212e+005
2.145862e+002, 1.008468e+005
2.146379e+002, 1.009201e+005
2.146897e+002, 1.011977e+005
2.147414e+002, 1.011315e+005
2.147931e+002, 1.009700e+005
2.148448e+002, 1.008171e+005
2.148966e+002, 1.011045e+005
2.149483e+002, 1.009396e+005
2.150000e+002, 1.008045e+005
2.150517e+002, 1.006954e+005
2.151035e+002, 1.007101e+005
2.151552e+002, 1.005738e+005
2.152069e+002, 1.004271e+005
2.152586e+002, 1.000605e+005
2.153103e+002, 9.999750e+004
2.153621e+002, 9.991422e+004
2.154138e+002, 9.979325e+004
2.154655e+002, 9.994300e+004
2.155172e+002, 1.001152e+005
2.155690e+002, 1.001617e+005
2.156207e+002, 1.002924e+005
2.156724e+002, 9.977835e+004
2.157242e+002, 9.965958e+004
2.157759e+002, 9.941625e+004
2.158276e+002, 9.955578e+004
2.158793e+002, 9.956494e+004
2.159310e+002, 9.934058e+004
2.159828e+002, 9.909819e+004
2.160345e+002, 9.909780e+004
2.160862e+002, 9.884357e+004
2.161379e+002, 9.892837e+004
2.161897e+002, 9.887402e+004
2.162414e+002, 9.881064e+004
2.162931e+002, 9.874478e+004
2.163448e+002, 9.881225e+004
2.163966e+002, 9.868142e+004
2.164483e+002, 9.862395e+004
2.165000e+002, 9.842064e+004
2.165517e+002, 9.872640e+004
2.166035e+002, 9.880880e+004
2.166552e+002, 9.873770e+004
2.167069e+002, 9.837174e+004
2.167586e+002, 9.835231e+004
2.168103e+002, 9.789095e+004
2.168621e+002, 9.763380e+004
2.169138e+002, 9.744655e+004
2.169655e+002, 9.747643e+004
2.170172e+002, 9.741298e+004
2.170690e+002, 9.766150e+004
2.171207e+002, 9.770366e+004
2.171724e+002, 9.778666e+004
2.172242e+002, 9.753163e+004
2.172759e+002, 9.733551e+004
2.173276e+002, 9.752609e+004
2.173793e+002, 9.776410e+004
2.174310e+002, 9.743522e+004
2.174828e+002, 9.756650e+004
2.175345e+002, 9.749127e+004
2.175862e+002, 9.753656e+004
2.176379e+002, 9.738865e+004
2.176897e+002, 9.758500e+004
2.177414e+002, 9.715298e+004
2.177931e+002, 9.686755e+004
2.178448e+002, 9.659924e+004
2.178966e+002, 9.674870e+004
2.179483e+002, 9.701030e+004
2.180000e+002, 9.699231e+004
2.180517e+002, 9.647088e+004
2.181035e+002, 9.619627e+004
2.181552e+002, 9.625327e+004
2.182069e+002, 9.584569e+004
2.182586e+002, 9.585705e+004
2.183103e+002, 9.581274e+004
2.183621e+002, 9.601293e+004
2.184138e+002, 9.572630e+004
2.184655e+002, 9.588575e+004
2.185172e+002, 9.592945e+004
2.185690e+002, 9.573183e+004
2.186207e+002, 9.580562e+004
2.186724e+002, 9.569358e+004
2.187242e+002, 9.566836e+004
2.187759e+002, 9.579335e+004
2.188276e+002, 9.571675e+004
2.188793e+002, 9.597646e+004
2.189310e+002, 9.596629e+004
2.189828e+002, 9.562729e+004
2.190345e+002, 9.557079e+004
2.190862e+002, 9.526597e+004
2.191379e+002, 9.524848e+004
2.191897e+002, 9.543691e+004
2.192414e+002, 9.548205e+004
2.192931e+002, 9.531815e+004
2.193448e+002, 9.513048e+004
2.193966e+002, 9.494537e+004
2.194483e+002, 9.497267e+004
2.195000e+002, 9.484916e+004
2.195517e+002, 9.484180e+004
2.196035e+002, 9.462675e+004
2.196552e+002, 9.435649e+004
2.197069e+002, 9.436997e+004
2.197586e+002, 9.431106e+004
2.198103e+002, 9.383730e+004
2.198621e+002, 9.363947e+004
2.199138e+002, 9.356067e+004
2.199655e+002, 9.392730e+004
2.200172e+002, 9.401363e+004
2.200690e+002, 9.415666e+004
2.201207e+002, 9.399927e+004
2.201724e+002, 9.400149e+004
2.202242e+002, 9.397330e+004
2.202759e+002, 9.393715e+004
2.203276e+002, 9.354489e+004
2.203793e+002, 9.326170e+004
2.204310e+002, 9.314806e+004
2.204828e+002, 9.319122e+004
2.205345e+002, 9.326552e+004
2.205862e+002, 9.315340e+004
2.206379e+002, 9.299224e+004
2.206897e+002, 9.297158e+004
2.207414e+002, 9.292961e+004
2.207931e+002, 9.267761e+004
2.208448e+002, 9.282039e+004
2.208966e+002, 9.301921e+004
2.209483e+002, 9.278711e+004
2.210000e+002, 9.249186e+004
2.210517e+002, 9.247988e+004
2.211035e+002, 9.257245e+004
2.211552e+002, 9.261120e+004
2.212069e+002, 9.245459e+004
2.212586e+002, 9.221064e+004
2.213103e+002, 9.217234e+004
2.213621e+002, 9.211924e+004
2.214138e+002, 9.211313e+004
2.214655e+002, 9.202289e+004
2.215172e+002, 9.196195e+004
2.215690e+002, 9.214201e+004
2.216207e+002, 9.206759e+004
2.216724e+002, 9.222955e+004
2.217242e+002, 9.206634e+004
2.217759e+002, 9.205312e+004
2.218276e+002, 9.194328e+004
2.218793e+002, 9.178579e+004
2.219310e+002, 9.179391e+004
2.219828e+002, 9.166023e+004
2.220345e+002, 9.164053e+004
2.220862e+002, 9.136235e+004
2.221379e+002, 9.123538e+004
2.221897e+002, 9.123092e+004
2.222414e+002, 9.108645e+004
2.222931e+002, 9.127686e+004
2.223448e+002, 9.132252e+004
2.223966e+002, 9.131153e+004
2.224483e+002, 9.098484e+004
2.225000e+002, 9.099587e+004
2.225517e+002, 9.076209e+004
2.226035e+002, 9.080659e+004
2.226552e+002, 9.080699e+004
2.227069e+002, 9.056120e+004
2.227586e+002, 9.043527e+004
2.228103e+002, 9.048827e+004
2.228621e+002, 9.059370e+004
2.229138e+002, 9.075505e+004
2.229655e+002, 9.061130e+004
2.230172e+002, 9.040311e+004
2.230690e+002, 9.035847e+004
2.231207e+002, 9.043847e+004
2.231724e+002, 9.028152e+004
2.232242e+002, 9.040263e+004
2.232759e+002, 9.028330e+004
2.233276e+002, 8.999079e+004
2.233793e+002, 8.984239e+004
2.234310e+002, 9.005639e+004
2.234828e+002, 9.002484e+004
2.235345e+002, 8.986489e+004
2.235862e+002, 8.950780e+004
2.236379e+002, 8.948374e+004
2.236897e+002, 8.937255e+004
2.237414e+002, 8.936252e+004
2.237931e+002, 8.916320e+004
2.238448e+002, 8.919859e+004
2.238966e+002, 8.925705e+004
2.239483e+002, 8.886988e+004
2.240000e+002, 8.864419e+004
2.240517e+002, 8.848142e+004
2.241035e+002, 8.819221e+004
2.241552e+002, 8.808211e+004
2.242069e+002, 8.808865e+004
2.242586e+002, 8.838902e+004
2.243103e+002, 8.851034e+004
2.243621e+002, 8.856730e+004
2.244138e+002, 8.828003e+004
2.244655e+002, 8.837049e+004
2.245172e+002, 8.842828e+004
2.245690e+002, 8.814784e+004
2.246207e+002, 8.808139e+004
2.246724e+002, 8.825467e+004
2.247242e+002, 8.819210e+004
2.247759e+002, 8.831988e+004
2.248276e+002, 8.812518e+004
2.248793e+002, 8.768420e+004
2.249310e+002, 8.789055e+004
2.249828e+002, 8.783070e+004
2.250345e+002, 8.790308e+004
2.250862e+002, 8.792531e+004
2.251379e+002, 8.761595e+004
2.251897e+002, 8.720641e+004
2.252414e+002, 8.717831e+004
2.252931e+002, 8.744931e+004
2.253448e+002, 8.719531e+004
2.253966e+002, 8.725506e+004
2.254483e+002, 8.718289e+004
2.255000e+002, 8.696056e+004
2.255517e+002, 8.696692e+004
2.256035e+002, 8.716509e+004
2.256552e+002, 8.717641e+004
2.257069e+002, 8.714772e+004
2.257586e+002, 8.703243e+004
2.258103e+002, 8.735609e+004
2.258621e+002, 8.726968e+004
2.259138e+002, 8.683278e+004
2.259655e+002, 8.632698e+004
2.260172e+002, 8.656465e+004
2.260690e+002, 8.678865e+004
2.261207e+002, 8.665382e+004
2.261724e+002, 8.634385e+004
2.262242e+002, 8.646745e+004
2.262759e+002, 8.606666e+004
2.263276e+002, 8.572069e+004
2.263793e+002, 8.577420e+004
2.264310e+002, 8.577393e+004
2.264828e+002, 8.571936e+004
2.265345e+002, 8.563601e+004
2.265862e+002, 8.553349e+004
2.266379e+002, 8.591716e+004
2.266897e+002, 8.599906e+004
2.267414e+002, 8.562603e+004
2.267931e+002, 8.534842e+004
2.268448e+002, 8.544065e+004
2.268966e+002, 8.553497e+004
2.269483e+002, 8.556438e+004
2.270000e+002, 8.542371e+004
2.270517e+002, 8.542145e+004
2.271035e+002, 8.550055e+004
2.271552e+002, 8.554265e+004
2.272069e+002, 8.537211e+004
2.272586e+002, 8.497938e+004
2.273103e+002, 8.483744e+004
2.273621e+002, 8.485333e+004
2.274138e+002, 8.492534e+004
2.274655e+002, 8.517639e+004
2.275172e+002, 8.508381e+004
2.275690e+002, 8.502148e+004
2.276207e+002, 8.502449e+004
2.276724e+002, 8.487611e+004
2.277242e+002, 8.457634e+004
2.277759e+002, 8.437248e+004
2.278276e+002, 8.425474e+004
2.278793e+002, 8.442873e+004
2.279310e+002, 8.440144e+004
2.279828e+002, 8.411866e+004
2.280345e+002, 8.412520e+004
2.280862e+002, 8.436097e+004
2.281379e+002, 8.406113e+004
2.281897e+002, 8.423988e+004
2.282414e+002, 8.439480e+004
2.282931e+002, 8.408883e+004
2.283448e+002, 8.405320e+004
2.283966e+002, 8.390336e+004
2.284483e+002, 8.352674e+004
2.285000e+002, 8.330902e+004
2.285517e+002, 8.335931e+004
2.286035e+002, 8.339966e+004
2.286552e+002, 8.351623e+004
2.287069e+002, 8.356779e+004
2.287586e+002, 8.348122e+004
2.288103e+002, 8.375744e+004
2.288621e+002, 8.366952e+004
2.289138e+002, 8.335683e+004
2.289655e+002, 8.310580e+004
2.290172e+002, 8.293080e+004
2.290690e+002, 8.291880e+004
2.291207e+002, 8.312178e+004
2.291724e+002, 8.330577e+004
2.292242e+002, 8.302912e+004
2.292759e+002, 8.299424e+004
2.293276e+002, 8.295216e+004
2.293793e+002, 8.296154e+004
2.294310e+002, 8.258666e+004
2.294828e+002, 8.275188e+004
2.295345e+002, 8.297183e+004
2.295862e+002, 8.293199e+004
2.296379e+002, 8.298630e+004
2.296897e+002, 8.269704e+004
2.297414e+002, 8.244445e+004
2.297931e+002, 8.223750e+004
2.298448e+002, 8.208356e+004
2.298966e+002, 8.229569e+004
2.299483e+002, 8.229616e+004
2.300000e+002, 8.202805e+004
2.300517e+002, 8.177488e+004
2.301035e+002, 8.177546e+004
2.301552e+002, 8.176587e+004
2.302069e+002, 8.225722e+004
2.302586e+002, 8.238569e+004
2.303103e+002, 8.195052e+004
2.303621e+002, 8.185706e+004
2.304138e+002, 8.185009e+004
2.304655e+002, 8.209903e+004
2.305172e+002, 8.208603e+004
2.305690e+002, 8.193323e+004
2.306207e+002, 8.182163e+004
2.306724e+002, 8.138952e+004
2.307242e+002, 8.110996e+004
2.307759e+002, 8.097742e+004
2.308276e+002, 8.101596e+004
2.308793e+002, 8.106387e+004
2.309310e+002, 8.124502e+004
2.309828e+002, 8.124140e+004
2.310345e+002, 8.142710e+004
2.310862e+002, 8.149839e+004
2.311379e+002, 8.142898e+004
2.311897e+002, 8.102666e+004
2.312414e+002, 8.051171e+004
2.312931e+002, 8.042013e+004
2.313448e+002, 8.047926e+004
2.313966e+002, 8.057882e+004
2.314483e+002, 8.060368e+004
2.315000e+002, 8.041520e+004
2.315517e+002, 8.010027e+004
2.316035e+002, 8.003960e+004
2.316552e+002, 8.017828e+004
2.317069e+002, 8.017822e+004
2.317586e+002, 8.019852e+004
2.318103e+002, 8.002231e+004
2.318621e+002, 8.003806e+004
2.319138e+002, 8.006905e+004
2.319655e+002, 8.005541e+004
2.320172e+002, 7.959038e+004
2.320690e+002, 7.992543e+004
2.321207e+002, 7.990161e+004
2.321724e+002, 7.959518e+004
2.322242e+002, 7.949518e+004
2.322759e+002, 7.972920e+004
2.323276e+002, 7.935984e+004
2.323793e+002, 7.932536e+004
2.324310e+002, 7.932577e+004
2.324828e+002, 7.947909e+004
2.325345e+002, 7.920676e+004
2.325862e+002, 7.911131e+004
2.326379e+002, 7.887546e+004
2.326897e+002, 7.891952e+004
2.327414e+002, 7.889573e+004
2.327931e+002, 7.914283e+004
2.328448e+002, 7.873047e+004
2.328966e+002, 7.860093e+004
2.329483e+002, 7.859145e+004
2.330000e+002, 7.881052e+004
2.330517e+002, 7.871123e+004
2.331035e+002, 7.887699e+004
2.331552e+002, 7.899930e+004
2.332069e+002, 7.892770e+004
2.332586e+002, 7.856992e+004
2.333103e+002, 7.842170e+004
2.333621e+002, 7.816076e+004
2.334138e+002, 7.816516e+004
2.334655e+002, 7.817363e+004
2.335172e+002, 7.824559e+004
2.335690e+002, 7.784091e+004
2.336207e+002, 7.790310e+004
2.336724e+002, 7.809152e+004
2.337242e+002, 7.785362e+004
2.337759e+002, 7.768951e+004
2.338276e+002, 7.773241e+004
2.338793e+002, 7.777097e+004
2.339310e+002, 7.805736e+004
2.339828e+002, 7.815594e+004
2.340345e+002, 7.790842e+004
2.340862e+002, 7.763252e+004
2.341379e+002, 7.756767e+004
2.341897e+002, 7.765516e+004
2.342414e+002, 7.771916e+004
2.342931e+002, 7.775844e+004
2.343448e+002, 7.767182e+004
2.343966e+002, 7.782015e+004
2.344483e+002, 7.782257e+004
2.345000e+002, 7.775988e+004
2.345517e+002, 7.769105e+004
2.346035e+002, 7.754513e+004
2.346552e+002, 7.742213e+004
2.347069e+002, 7.764339e+004
2.347586e+002, 7.745463e+004
2.348103e+002, 7.700968e+004
2.348621e+002, 7.661610e+004
2.349138e+002, 7.647816e+004
2.349655e+002, 7.661191e+004
2.350172e+002, 7.687966e+004
2.350690e+002, 7.683406e+004
2.351207e+002, 7.672723e+004
2.351724e+002, 7.681579e+004
2.352242e+002, 7.676101e+004
2.352759e+002, 7.675074e+004
2.353276e+002, 7.680149e+004
2.353793e+002, 7.677838e+004
2.354310e+002, 7.667420e+004
2.354828e+002, 7.667398e+004
2.355345e+002, 7.670227e+004
2.355862e+002, 7.627427e+004
2.356379e+002, 7.620804e+004
2.356897e+002, 7.627438e+004
2.357414e+002, 7.615888e+004
2.357931e+002, 7.619961e+004
2.358448e+002, 7.620221e+004
2.358966e+002, 7.640273e+004
2.359483e+002, 7.622415e+004
2.360000e+002, 7.583728e+004
2.360517e+002, 7.578994e+004
2.361035e+002, 7.582507e+004
2.361552e+002, 7.591502e+004
2.362069e+002, 7.591605e+004
2.362586e+002, 7.587647e+004
2.363103e+002, 7.559277e+004
2.363621e+002, 7.537595e+004
2.364138e+002, 7.540348e+004
2.364655e+002, 7.560006e+004
2.365172e+002, 7.567381e+004
2.365690e+002, 7.568814e+004
2.366207e+002, 7.566736e+004
2.366724e+002, 7.531423e+004
2.367242e+002, 7.483891e+004
2.367759e+002, 7.523063e+004
2.368276e+002, 7.559809e+004
2.368793e+002, 7.590019e+004
2.369310e+002, 7.554126e+004
2.369828e+002, 7.506780e+004
2.370345e+002, 7.491830e+004
2.370862e+002, 7.489970e+004
2.371379e+002, 7.489920e+004
2.371897e+002, 7.491827e+004
2.372414e+002, 7.479430e+004
2.372931e+002, 7.467751e+004
2.373448e+002, 7.474621e+004
2.373966e+002, 7.468734e+004
2.374483e+002, 7.445049e+004
2.375000e+002, 7.426869e+004
2.375517e+002, 7.408458e+004
2.376035e+002, 7.406941e+004
2.376552e+002, 7.403756e+004
2.377069e+002, 7.417786e+004
2.377586e+002, 7.452998e+004
2.378103e+002, 7.462022e+004
2.378621e+002, 7.432498e+004
2.379138e+002, 7.402667e+004
2.379655e+002, 7.391266e+004
2.380172e+002, 7.381270e+004
2.380690e+002, 7.366235e+004
2.381207e+002, 7.378471e+004
2.381724e+002, 7.406561e+004
2.382242e+002, 7.385930e+004
2.382759e+002, 7.380750e+004
2.383276e+002, 7.385149e+004
2.383793e+002, 7.363352e+004
2.384310e+002, 7.361262e+004
2.384828e+002, 7.339032e+004
2.385345e+002, 7.334205e+004
2.385862e+002, 7.328174e+004
2.386379e+002, 7.334106e+004
2.386897e+002, 7.311407e+004
2.387414e+002, 7.327396e+004
2.387931e+002, 7.363287e+004
2.388448e+002, 7.366059e+004
2.388966e+002, 7.331276e+004
2.389483e+002, 7.298766e+004
2.390000e+002, 7.289702e+004
2.390517e+002, 7.286057e+004
2.391035e+002, 7.305963e+004
2.391552e+002, 7.303591e+004
2.392069e+002, 7.288955e+004
2.392586e+002, 7.306280e+004
2.393103e+002, 7.319078e+004
2.393621e+002, 7.326166e+004
2.394138e+002, 7.337536e+004
2.394655e+002, 7.315402e+004
2.395172e+002, 7.297063e+004
2.395690e+002, 7.284548e+004
2.396207e+002, 7.268901e+004
2.396724e+002, 7.235318e+004
2.397242e+002, 7.241325e+004
2.397759e+002, 7.242530e+004
2.398276e+002, 7.251675e+004
2.398793e+002, 7.262738e+004
2.399310e+002, 7.204796e+004
2.399828e+002, 7.214266e+004
2.400345e+002, 7.201990e+004
2.400862e+002, 7.174177e+004
2.401379e+002, 7.166130e+004
2.401897e+002, 7.182971e+004
2.402414e+002, 7.194573e+004
2.402931e+002, 7.199459e+004
2.403448e+002, 7.199411e+004
2.403966e+002, 7.170970e+004
2.404483e+002, 7.197988e+004
2.405000e+002, 7.198129e+004
2.405517e+002, 7.163398e+004
2.406035e+002, 7.141860e+004
2.406552e+002, 7.140055e+004
2.407069e+002, 7.158611e+004
2.407586e+002, 7.147709e+004
2.408103e+002, 7.133073e+004
2.408621e+002, 7.119157e+004
2.409138e+002, 7.128843e+004
2.409655e+002, 7.138180e+004
2.410172e+002, 7.130207e+004
2.410690e+002, 7.126137e+004
2.411207e+002, 7.117313e+004
2.411724e+002, 7.117319e+004
2.412242e+002, 7.092092e+004
2.412759e+002, 7.076245e+004
2.413276e+002, 7.075891e+004
2.413793e+002, 7.073236e+004
2.414310e+002, 7.085668e+004
2.414828e+002, 7.082957e+004
2.415345e+002, 7.077062e+004
2.415862e+002, 7.046931e+004
2.416379e+002, 7.016055e+004
2.416897e+002, 7.032421e+004
2.417414e+002, 7.041394e+004
2.417931e+002, 7.026745e+004
2.418448e+002, 7.033695e+004
2.418966e+002, 7.036498e+004
2.419483e+002, 7.034334e+004
2.420000e+002, 7.045396e+004
2.420517e+002, 7.032983e+004
2.421035e+002, 7.002469e+004
2.421552e+002, 7.018566e+004
2.422069e+002, 7.021718e+004
2.422586e+002, 6.991287e+004
2.423103e+002, 7.023092e+004
2.423621e+002, 7.040231e+004
2.424138e+002, 7.023299e+004
2.424655e+002, 7.005307e+004
2.425172e+002, 6.981873e+004
2.425690e+002, 6.974205e+004
2.426207e+002, 6.989130e+004
2.426724e+002, 6.980166e+004
2.427242e+002, 6.951909e+004
2.427759e+002, 6.956255e+004
2.428276e+002, 6.976283e+004
2.428793e+002, 6.979095e+004
2.429310e+002, 6.994361e+004
2.429828e+002, 7.006876e+004
2.430345e+002, 6.974853e+004
2.430862e+002, 6.927277e+004
2.431379e+002, 6.913116e+004
2.431897e+002, 6.881562e+004
2.432414e+002, 6.901020e+004
2.432931e+002, 6.912343e+004
2.433448e+002, 6.906682e+004
2.433966e+002, 6.904419e+004
2.434483e+002, 6.901340e+004
2.435000e+002, 6.896791e+004
2.435517e+002, 6.897150e+004
2.436035e+002, 6.892780e+004
2.436552e+002, 6.904549e+004
2.437069e+002, 6.881664e+004
2.437586e+002, 6.875320e+004
2.438103e+002, 6.851494e+004
2.438621e+002, 6.857205e+004
2.439138e+002, 6.874086e+004
2.439655e+002, 6.853721e+004
2.440172e+002, 6.825998e+004
2.440690e+002, 6.846791e+004
2.441207e+002, 6.867905e+004
2.441724e+002, 6.863430e+004
2.442242e+002, 6.845666e+004
2.442759e+002, 6.823566e+004
2.443276e+002, 6.808752e+004
2.443793e+002, 6.816885e+004
2.444310e+002, 6.796409e+004
2.444828e+002, 6.794261e+004
2.445345e+002, 6.809793e+004
2.445862e+002, 6.794408e+004
2.446379e+002, 6.777868e+004
2.446897e+002, 6.781462e+004
2.447414e+002, 6.775212e+004
2.447931e+002, 6.782148e+004
2.448448e+002, 6.793439e+004
2.448966e+002, 6.767880e+004
2.449483e+002, 6.779570e+004
2.450000e+002, 6.764837e+004
2.450517e+002, 6.741134e+004
2.451035e+002, 6.744872e+004
2.451552e+002, 6.764463e+004
2.452069e+002, 6.761841e+004
2.452586e+002, 6.754186e+004
2.453103e+002, 6.742905e+004
2.453621e+002, 6.733315e+004
2.454138e+002, 6.738723e+004
2.454655e+002, 6.741319e+004
2.455172e+002, 6.728871e+004
2.455690e+002, 6.722787e+004
2.456207e+002, 6.733794e+004
2.456724e+002, 6.714736e+004
2.457242e+002, 6.703050e+004
2.457759e+002, 6.721000e+004
2.458276e+002, 6.728377e+004
2.458793e+002, 6.742897e+004
2.459310e+002, 6.692685e+004
2.459828e+002, 6.670488e+004
2.460345e+002, 6.665865e+004
2.460862e+002, 6.650475e+004
2.461379e+002, 6.632125e+004
2.461897e+002, 6.654744e+004
2.462414e+002, 6.663266e+004
2.462931e+002, 6.649230e+004
2.463448e+002, 6.650602e+004
2.463966e+002, 6.647174e+004
2.464483e+002, 6.661866e+004
2.465000e+002, 6.650228e+004
2.465517e+002, 6.661958e+004
2.466035e+002, 6.654161e+004
2.466552e+002, 6.645780e+004
2.467069e+002, 6.617166e+004
2.467586e+002, 6.583710e+004
2.468103e+002, 6.585087e+004
2.468621e+002, 6.599719e+004
2.469138e+002, 6.590445e+004
2.469655e+002, 6.584786e+004
2.470172e+002, 6.572459e+004
2.470690e+002, 6.566585e+004
2.471207e+002, 6.577795e+004
2.471724e+002, 6.616222e+004
2.472242e+002, 6.582450e+004
2.472759e+002, 6.564141e+004
2.473276e+002, 6.572400e+004
2.473793e+002, 6.579641e+004
2.474310e+002, 6.575413e+004
2.474828e+002, 6.569274e+004
2.475345e+002, 6.572491e+004
2.475862e+002, 6.574730e+004
2.476379e+002, 6.569603e+004
2.476897e+002, 6.525477e+004
2.477414e+002, 6.525437e+004
2.477931e+002, 6.524127e+004
2.478448e+002, 6.499143e+004
2.478966e+002, 6.509907e+004
2.479483e+002, 6.507624e+004
2.480000e+002, 6.509770e+004
2.480517e+002, 6.492684e+004
2.481035e+002, 6.493718e+004
2.481552e+002, 6.476858e+004
2.482069e+002, 6.481212e+004
2.482586e+002, 6.477128e+004
2.483103e+002, 6.489417e+004
2.483621e+002, 6.494029e+004
2.484138e+002, 6.475804e+004
2.484655e+002, 6.469920e+004
2.485172e+002, 6.468964e+004
2.485690e+002, 6.495688e+004
2.486207e+002, 6.493380e+004
2.486724e+002, 6.478695e+004
2.487242e+002, 6.467332e+004
2.487759e+002, 6.482913e+004
2.488276e+002, 6.458695e+004
2.488793e+002, 6.467978e+004
2.489310e+002, 6.471296e+004
2.489828e+002, 6.481298e+004
2.490345e+002, 6.481732e+004
2.490862e+002, 6.472535e+004
2.491379e+002, 6.421314e+004
2.491897e+002, 6.400918e+004
2.492414e+002, 6.392039e+004
2.492931e+002, 6.383836e+004
2.493448e+002, 6.386310e+004
2.493966e+002, 6.389584e+004
2.494483e+002, 6.421047e+004
2.495000e+002, 6.423005e+004
2.495517e+002, 6.381016e+004
2.496035e+002, 6.366223e+004
2.496552e+002, 6.394048e+004
2.497069e+002, 6.394383e+004
2.497586e+002, 6.392751e+004
2.498103e+002, 6.369139e+004
2.498621e+002, 6.389399e+004
2.499138e+002, 6.381055e+004
2.499655e+002, 6.365650e+004
2.500172e+002, 6.346927e+004
2.500690e+002, 6.360796e+004
2.501207e+002, 6.365479e+004
2.501724e+002, 6.353528e+004
2.502242e+002, 6.336486e+004
2.502759e+002, 6.356739e+004
2.503276e+002, 6.341688e+004
2.503793e+002, 6.319482e+004
2.504310e+002, 6.301968e+004
2.504828e+002, 6.301620e+004
2.505345e+002, 6.322915e+004
2.505862e+002, 6.348069e+004
2.506379e+002, 6.297317e+004
2.506897e+002, 6.262835e+004
2.507414e+002, 6.260689e+004
2.507931e+002, 6.287541e+004
2.508448e+002, 6.298155e+004
2.508966e+002, 6.282836e+004
2.509483e+002, 6.264116e+004
2.510000e+002, 6.300507e+004
2.510517e+002, 6.336212e+004
2.511035e+002, 6.325832e+004
2.511552e+002, 6.326093e+004
2.512069e+002, 6.307057e+004
2.512586e+002, 6.277952e+004
2.513103e+002, 6.268670e+004
2.513621e+002, 6.257479e+004
2.514138e+002, 6.228380e+004
2.514655e+002, 6.221349e+004
2.515172e+002, 6.246376e+004
2.515690e+002, 6.231246e+004
2.516207e+002, 6.232932e+004
2.516724e+002, 6.236756e+004
2.517242e+002, 6.252465e+004
2.517759e+002, 6.264442e+004
2.518276e+002, 6.254125e+004
2.518793e+002, 6.226268e+004
2.519310e+002, 6.206228e+004
2.519828e+002, 6.222311e+004
2.520345e+002, 6.211890e+004
2.520862e+002, 6.194048e+004
2.521379e+002, 6.188895e+004
2.521897e+002, 6.172609e+004
2.522414e+002, 6.177132e+004
2.522931e+002, 6.167125e+004
2.523448e+002, 6.167866e+004
2.523966e+002, 6.183396e+004
2.524483e+002, 6.205284e+004
2.525000e+002, 6.192675e+004
2.525517e+002, 6.184420e+004
2.526035e+002, 6.184712e+004
2.526552e+002, 6.156209e+004
2.527069e+002, 6.137547e+004
2.527586e+002, 6.151345e+004
2.528103e+002, 6.166682e+004
2.528621e+002, 6.175380e+004
2.529138e+002, 6.168280e+004
2.529655e+002, 6.132354e+004
2.530172e+002, 6.119845e+004
2.530690e+002, 6.146161e+004
2.531207e+002, 6.150356e+004
2.531724e+002, 6.125318e+004
2.532242e+002, 6.145462e+004
2.532759e+002, 6.122741e+004
2.533276e+002, 6.124712e+004
2.533793e+002, 6.133899e+004
2.534310e+002, 6.145519e+004
2.534828e+002, 6.101641e+004
2.535345e+002, 6.109100e+004
2.535862e+002, 6.082470e+004
2.536379e+002, 6.083109e+004
2.536897e+002, 6.093831e+004
2.537414e+002, 6.096979e+004
2.537931e+002, 6.101277e+004
2.538448e+002, 6.075636e+004
2.538966e+002, 6.040014e+004
2.539483e+002, 6.052638e+004
2.540000e+002, 6.071148e+004
2.540517e+002, 6.068378e+004
2.541035e+002, 6.069686e+004
2.541552e+002, 6.071486e+004
2.542069e+002, 6.050346e+004
2.542586e+002, 6.054342e+004
2.543103e+002, 6.054895e+004
2.543621e+002, 6.029107e+004
2.544138e+002, 6.012532e+004
2.544655e+002, 6.021764e+004
2.545172e+002, 6.019968e+004
2.545690e+002, 6.007169e+004
2.546207e+002, 6.009669e+004
2.546724e+002, 5.979829e+004
2.547242e+002, 5.982017e+004
2.547759e+002, 5.996852e+004
2.548276e+002, 5.987162e+004
2.548793e+002, 5.993068e+004
2.549310e+002, 5.987903e+004
2.549828e+002, 5.969498e+004
2.550345e+002, 5.958268e+004
2.550862e+002, 5.970035e+004
2.551379e+002, 5.975616e+004
2.551897e+002, 5.951846e+004
2.552414e+002, 5.955164e+004
2.552931e+002, 5.947235e+004
2.553448e+002, 5.961734e+004
2.553966e+002, 5.987530e+004
2.554483e+002, 5.983088e+004
2.555000e+002, 5.950872e+004
2.555517e+002, 5.928680e+004
2.556035e+002, 5.895105e+004
2.556552e+002, 5.907013e+004
2.557069e+002, 5.912693e+004
2.557586e+002, 5.900510e+004
2.558103e+002, 5.907326e+004
2.558621e+002, 5.932866e+004
2.559138e+002, 5.946634e+004
2.559655e+002, 5.932339e+004
2.560172e+002, 5.950663e+004
2.560690e+002, 5.934086e+004
2.561207e+002, 5.903333e+004
2.561724e+002, 5.909967e+004
2.562242e+002, 5.896960e+004
2.562759e+002, 5.917231e+004
2.563276e+002, 5.892463e+004
2.563793e+002, 5.890815e+004
2.564310e+002, 5.866665e+004
2.564828e+002, 5.868712e+004
2.565345e+002, 5.859462e+004
2.565862e+002, 5.850938e+004
2.566379e+002, 5.879979e+004
2.566897e+002, 5.896096e+004
2.567414e+002, 5.865634e+004
2.567931e+002, 5.883965e+004
2.568448e+002, 5.882388e+004
2.568965e+002, 5.864300e+004
2.569483e+002, 5.855978e+004
2.570000e+002, 5.841116e+004
2.570517e+002, 5.828412e+004
2.571035e+002, 5.813454e+004
2.571552e+002, 5.797480e+004
2.572069e+002, 5.781588e+004
2.572586e+002, 5.796651e+004
2.573104e+002, 5.822563e+004
2.573621e+002, 5.853030e+004
2.574138e+002, 5.831725e+004
2.574655e+002, 5.822392e+004
2.575172e+002, 5.822926e+004
2.575690e+002, 5.835255e+004
2.576207e+002, 5.816559e+004
2.576724e+002, 5.789671e+004
2.577242e+002, 5.803802e+004
2.577759e+002, 5.793476e+004
2.578276e+002, 5.776906e+004
2.578793e+002, 5.770745e+004
2.579310e+002, 5.770352e+004
2.579828e+002, 5.757330e+004
2.580345e+002, 5.767446e+004
2.580862e+002, 5.757504e+004
2.581379e+002, 5.768498e+004
2.581897e+002, 5.769863e+004
2.582414e+002, 5.754180e+004
2.582931e+002, 5.769752e+004
2.583448e+002, 5.795555e+004
2.583965e+002, 5.768998e+004
2.584483e+002, 5.751563e+004
2.585000e+002, 5.732333e+004
2.585517e+002, 5.738886e+004
2.586035e+002, 5.724452e+004
2.586552e+002, 5.702434e+004
2.587069e+002, 5.705555e+004
2.587586e+002, 5.714010e+004
2.588104e+002, 5.737818e+004
2.588621e+002, 5.711289e+004
2.589138e+002, 5.716241e+004
2.589655e+002, 5.741324e+004
2.590172e+002, 5.737559e+004
2.590690e+002, 5.718182e+004
2.591207e+002, 5.713399e+004
2.591724e+002, 5.708720e+004
2.592242e+002, 5.698489e+004
2.592759e+002, 5.677952e+004
2.593276e+002, 5.668946e+004
2.593793e+002, 5.684768e+004
2.594310e+002, 5.694690e+004
2.594828e+002, 5.689663e+004
2.595345e+002, 5.663020e+004
2.595862e+002, 5.668644e+004
2.596379e+002, 5.670674e+004
2.596897e+002, 5.664270e+004
2.597414e+002, 5.652893e+004
2.597931e+002, 5.647633e+004
2.598448e+002, 5.660579e+004
2.598965e+002, 5.673784e+004
2.599483e+002, 5.647010e+004
2.600000e+002, 5.634818e+004
2.600517e+002, 5.644182e+004
2.601035e+002, 5.610471e+004
2.601552e+002, 5.600380e+004
2.602069e+002, 5.641866e+004
2.602586e+002, 5.630836e+004
2.603104e+002, 5.609787e+004
2.603621e+002, 5.618439e+004
2.604138e+002, 5.612577e+004
2.604655e+002, 5.602174e+004
2.605172e+002, 5.594465e+004
2.605690e+002, 5.602057e+004
2.606207e+002, 5.593526e+004
2.606724e+002, 5.573981e+004
2.607242e+002, 5.571570e+004
2.607759e+002, 5.598125e+004
2.608276e+002, 5.590550e+004
2.608793e+002, 5.569639e+004
2.609310e+002, 5.580702e+004
2.609828e+002, 5.583472e+004
2.610345e+002, 5.579552e+004
2.610862e+002, 5.590523e+004
2.611379e+002, 5.600784e+004
2.611897e+002, 5.590400e+004
2.612414e+002, 5.587194e+004
2.612931e+002, 5.588036e+004
2.613448e+002, 5.575240e+004
2.613965e+002, 5.587302e+004
2.614483e+002, 5.592336e+004
2.615000e+002, 5.564897e+004
2.615517e+002, 5.560000e+004
2.616035e+002, 5.584321e+004
2.616552e+002, 5.567584e+004
2.617069e+002, 5.541777e+004
2.617586e+002, 5.553823e+004
2.618104e+002, 5.535689e+004
2.618621e+002, 5.526404e+004
2.619138e+002, 5.527302e+004
2.619655e+002, 5.520082e+004
2.620172e+002, 5.537855e+004
2.620690e+002, 5.507434e+004
2.621207e+002, 5.488930e+004
2.621724e+002, 5.502098e+004
2.622242e+002, 5.482954e+004
2.622759e+002, 5.478039e+004
2.623276e+002, 5.489618e+004
2.623793e+002, 5.491870e+004
2.624310e+002, 5.450449e+004
2.624828e+002, 5.454236e+004
2.625345e+002, 5.477519e+004
2.625862e+002, 5.479240e+004
2.626379e+002, 5.468174e+004
2.626897e+002, 5.470698e+004
2.627414e+002, 5.477333e+004
2.627931e+002, 5.509800e+004
2.628448e+002, 5.504516e+004
2.628965e+002, 5.486393e+004
2.629483e+002, 5.480914e+004
2.630000e+002, 5.460023e+004
2.630517e+002, 5.426014e+004
2.631035e+002, 5.437220e+004
2.631552e+002, 5.469110e+004
2.632069e+002, 5.465089e+004
2.632586e+002, 5.451533e+004
2.633104e+002, 5.464651e+004
2.633621e+002, 5.439289e+004
2.634138e+002, 5.409946e+004
2.634655e+002, 5.406332e+004
2.635172e+002, 5.396560e+004
2.635690e+002, 5.419445e+004
2.636207e+002, 5.431885e+004
2.636724e+002, 5.400115e+004
2.637242e+002, 5.382268e+004
2.637759e+002, 5.403704e+004
2.638276e+002, 5.398575e+004
2.638793e+002, 5.390561e+004
2.639310e+002, 5.389216e+004
2.639828e+002, 5.389713e+004
2.640345e+002, 5.413952e+004
2.640862e+002, 5.453382e+004
2.641379e+002, 5.384976e+004
2.641897e+002, 5.362158e+004
2.642414e+002, 5.378371e+004
2.642931e+002, 5.392550e+004
2.643448e+002, 5.394520e+004
2.643965e+002, 5.406816e+004
2.644483e+002, 5.382100e+004
2.645000e+002, 5.381318e+004
2.645517e+002, 5.377861e+004
2.646035e+002, 5.338048e+004
2.646552e+002, 5.317514e+004
2.647069e+002, 5.306402e+004
2.647586e+002, 5.298932e+004
2.648104e+002, 5.308225e+004
2.648621e+002, 5.311257e+004
2.649138e+002, 5.332923e+004
2.649655e+002, 5.307892e+004
2.650172e+002, 5.328876e+004
2.650690e+002, 5.327871e+004
2.651207e+002, 5.321863e+004
2.651724e+002, 5.321372e+004
2.652242e+002, 5.321500e+004
2.652759e+002, 5.337526e+004
2.653276e+002, 5.315228e+004
2.653793e+002, 5.326340e+004
2.654310e+002, 5.350574e+004
2.654828e+002, 5.345788e+004
2.655345e+002, 5.303886e+004
2.655862e+002, 5.279483e+004
2.656379e+002, 5.264991e+004
2.656897e+002, 5.270443e+004
2.657414e+002, 5.276064e+004
2.657931e+002, 5.299245e+004
2.658448e+002, 5.273792e+004
2.658965e+002, 5.274838e+004
2.659483e+002, 5.279203e+004
2.660000e+002, 5.268674e+004
2.660517e+002, 5.256275e+004
2.661035e+002, 5.267236e+004
2.661552e+002, 5.258957e+004
2.662069e+002, 5.267286e+004
2.662586e+002, 5.263053e+004
2.663104e+002, 5.254302e+004
2.663621e+002, 5.261523e+004
2.664138e+002, 5.290532e+004
2.664655e+002, 5.270943e+004
2.665172e+002, 5.279407e+004
2.665690e+002, 5.263752e+004
2.666207e+002, 5.255151e+004
2.666724e+002, 5.239572e+004
2.667242e+002, 5.266664e+004
2.667759e+002, 5.242873e+004
2.668276e+002, 5.217628e+004
2.668793e+002, 5.185234e+004
2.669310e+002, 5.187196e+004
2.669828e+002, 5.207189e+004
2.670345e+002, 5.234856e+004
2.670862e+002, 5.210980e+004
2.671379e+002, 5.206464e+004
2.671897e+002, 5.201505e+004
2.672414e+002, 5.195927e+004
2.672931e+002, 5.200235e+004
2.673448e+002, 5.200734e+004
2.673965e+002, 5.188825e+004
2.674483e+002, 5.180122e+004
2.675000e+002, 5.196561e+004
2.675517e+002, 5.185001e+004
2.676035e+002, 5.203557e+004
2.676552e+002, 5.185584e+004
2.677069e+002, 5.162545e+004
2.677586e+002, 5.144857e+004
2.678104e+002, 5.180400e+004
2.678621e+002, 5.183053e+004
2.679138e+002, 5.190873e+004
2.679655e+002, 5.177901e+004
2.680172e+002, 5.154397e+004
2.680690e+002, 5.138107e+004
2.681207e+002, 5.146652e+004
2.681724e+002, 5.101516e+004
2.682242e+002, 5.106911e+004
2.682759e+002, 5.131395e+004
2.683276e+002, 5.150153e+004
2.683793e+002, 5.165741e+004
2.684310e+002, 5.174782e+004
2.684828e+002, 5.156542e+004
2.685345e+002, 5.136652e+004
2.685862e+002, 5.109855e+004
2.686379e+002, 5.074534e+004
2.686897e+002, 5.096023e+004
2.687414e+002, 5.097824e+004
2.687931e+002, 5.081753e+004
2.688448e+002, 5.065237e+004
2.688965e+002, 5.080171e+004
2.689483e+002, 5.101216e+004
2.690000e+002, 5.107218e+004
2.690517e+002, 5.102552e+004
2.691035e+002, 5.087320e+004
2.691552e+002, 5.085410e+004
2.692069e+002, 5.091552e+004
2.692586e+002, 5.087050e+004
2.693104e+002, 5.084960e+004
2.693621e+002, 5.098136e+004
2.694138e+002, 5.074396e+004
2.694655e+002, 5.065488e+004
2.695172e+002, 5.067893e+004
2.695690e+002, 5.062834e+004
2.696207e+002, 5.066279e+004
2.696724e+002, 5.055458e+004
2.697242e+002, 5.031628e+004
2.697759e+002, 5.055589e+004
2.698276e+002, 5.069493e+004
2.698793e+002, 5.064429e+004
2.699310e+002, 5.060140e+004
2.699828e+002, 5.066225e+004
2.700345e+002, 5.036802e+004
2.700862e+002, 5.032051e+004
2.701379e+002, 5.031710e+004
2.701897e+002, 5.001830e+004
2.702414e+002, 4.985847e+004
2.702931e+002, 4.989985e+004
2.703448e+002, 5.018868e+004
2.703965e+002, 5.062799e+004
2.704483e+002, 5.056622e+004
2.705000e+002, 5.018671e+004
2.705517e+002, 4.997214e+004
2.706035e+002, 5.004327e+004
2.706552e+002, 4.995420e+004
2.707069e+002, 5.011139e+004
2.707586e+002, 5.046400e+004
2.708104e+002, 5.015048e+004
2.708621e+002, 4.998906e+004
2.709138e+002, 5.001007e+004
2.709655e+002, 5.005247e+004
2.710172e+002, 5.002262e+004
2.710690e+002, 4.988716e+004
2.711207e+002, 4.977837e+004
2.711724e+002, 4.981001e+004
2.712242e+002, 4.957010e+004
2.712759e+002, 4.954322e+004
2.713276e+002, 4.973268e+004
2.713793e+002, 4.971963e+004
2.714310e+002, 4.958001e+004
2.714828e+002, 4.957304e+004
2.715345e+002, 4.970603e+004
2.715862e+002, 4.958375e+004
2.716379e+002, 4.956255e+004
2.716897e+002, 4.964517e+004
2.717414e+002, 4.929250e+004
2.717931e+002, 4.913447e+004
2.718448e+002, 4.924932e+004
2.718965e+002, 4.916488e+004
2.719483e+002, 4.935773e+004
2.720000e+002, 4.934466e+004
2.720517e+002, 4.918016e+004
2.721035e+002, 4.905098e+004
2.721552e+002, 4.908552e+004
2.722069e+002, 4.925719e+004
2.722586e+002, 4.950380e+004
2.723104e+002, 4.951220e+004
2.723621e+002, 4.921237e+004
2.724138e+002, 4.950846e+004
2.724655e+002, 4.950602e+004
2.725172e+002, 4.912314e+004
2.725690e+002, 4.893014e+004
2.726207e+002, 4.918840e+004
2.726724e+002, 4.892546e+004
2.727242e+002, 4.909139e+004
2.727759e+002, 4.936763e+004
2.728276e+002, 4.899356e+004
2.728793e+002, 4.891457e+004
2.729310e+002, 4.896286e+004
2.729828e+002, 4.890979e+004
2.730345e+002, 4.898117e+004
2.730862e+002, 4.898582e+004
2.731379e+002, 4.877926e+004
2.731897e+002, 4.881221e+004
2.732414e+002, 4.883178e+004
2.732931e+002, 4.831793e+004
2.733448e+002, 4.840269e+004
2.733965e+002, 4.851984e+004
2.734483e+002, 4.860687e+004
2.735000e+002, 4.866102e+004
2.735517e+002, 4.863744e+004
2.736035e+002, 4.838600e+004
2.736552e+002, 4.858155e+004
2.737069e+002, 4.840990e+004
2.737586e+002, 4.827227e+004
2.738104e+002, 4.821594e+004
2.738621e+002, 4.835295e+004
2.739138e+002, 4.840108e+004
2.739655e+002, 4.852375e+004
2.740172e+002, 4.842861e+004
2.740690e+002, 4.839084e+004
2.741207e+002, 4.830628e+004
2.741724e+002, 4.853376e+004
2.742242e+002, 4.834003e+004
2.742759e+002, 4.825920e+004
2.743276e+002, 4.800874e+004
2.743793e+002, 4.787969e+004
2.744310e+002, 4.804159e+004
2.744828e+002, 4.815358e+004
2.745345e+002, 4.799560e+004
2.745862e+002, 4.799251e+004
2.746379e+002, 4.799364e+004
2.746897e+002, 4.798747e+004
2.747414e+002, 4.780399e+004
2.747931e+002, 4.797588e+004
2.748448e+002, 4.777405e+004
2.748965e+002, 4.775161e+004
2.749483e+002, 4.745863e+004
2.750000e+002, 4.737558e+004
2.750517e+002, 4.742245e+004
2.751035e+002, 4.755857e+004
2.751552e+002, 4.757514e+004
2.752069e+002, 4.763991e+004
2.752586e+002, 4.761439e+004
2.753104e+002, 4.751079e+004
2.753621e+002, 4.749043e+004
2.754138e+002, 4.746300e+004
2.754655e+002, 4.757207e+004
2.755172e+002, 4.764346e+004
2.755690e+002, 4.777484e+004
2.756207e+002, 4.775021e+004
2.756724e+002, 4.760904e+004
2.757242e+002, 4.759688e+004
2.757759e+002, 4.736448e+004
2.758276e+002, 4.725393e+004
2.758793e+002, 4.716330e+004
2.759310e+002, 4.726471e+004
2.759828e+002, 4.735884e+004
2.760345e+002, 4.714087e+004
2.760862e+002, 4.690690e+004
2.761379e+002, 4.704618e+004
2.761897e+002, 4.735784e+004
2.762414e+002, 4.765404e+004
2.762931e+002, 4.748953e+004
2.763448e+002, 4.720979e+004
2.763965e+002, 4.705280e+004
2.764483e+002, 4.719848e+004
2.765000e+002, 4.735325e+004
2.765517e+002, 4.719380e+004
2.766035e+002, 4.703459e+004
2.766552e+002, 4.722695e+004
2.767069e+002, 4.717090e+004
2.767586e+002, 4.719212e+004
2.768104e+002, 4.712669e+004
2.768621e+002, 4.695702e+004
2.769138e+002, 4.687966e+004
2.769655e+002, 4.687200e+004
2.770172e+002, 4.686353e+004
2.770690e+002, 4.681780e+004
2.771207e+002, 4.677696e+004
2.771724e+002, 4.683556e+004
2.772242e+002, 4.673280e+004
2.772759e+002, 4.680518e+004
2.773276e+002, 4.664925e+004
2.773793e+002, 4.664041e+004
2.774310e+002, 4.643336e+004
2.774828e+002, 4.644915e+004
2.775345e+002, 4.647730e+004
2.775862e+002, 4.672703e+004
2.776379e+002, 4.666788e+004
2.776897e+002, 4.672801e+004
2.777414e+002, 4.675902e+004
2.777931e+002, 4.686330e+004
2.778448e+002, 4.671304e+004
2.778965e+002, 4.675801e+004
2.779483e+002, 4.670170e+004
2.780000e+002, 4.673228e+004
2.780517e+002, 4.679175e+004
2.781035e+002, 4.655077e+004
2.781552e+002, 4.646070e+004
2.782069e+002, 4.672436e+004
2.782586e+002, 4.684364e+004
2.783104e+002, 4.693620e+004
2.783621e+002, 4.669321e+004
2.784138e+002, 4.648402e+004
2.784655e+002, 4.642445e+004
2.785172e+002, 4.619578e+004
2.785690e+002, 4.604036e+004
2.786207e+002, 4.633277e+004
2.786724e+002, 4.628125e+004
2.787242e+002, 4.625544e+004
2.787759e+002, 4.642307e+004
2.788276e+002, 4.642382e+004
2.788793e+002, 4.649753e+004
2.789310e+002, 4.648485e+004
2.789828e+002, 4.660623e+004
2.790345e+002, 4.639929e+004
2.790862e+002, 4.625060e+004
2.791379e+002, 4.614027e+004
2.791897e+002, 4.601403e+004
2.792414e+002, 4.605446e+004
2.792931e+002, 4.622812e+004
2.793448e+002, 4.618617e+004
2.793965e+002, 4.623920e+004
2.794483e+002, 4.631099e+004
2.795000e+002, 4.647864e+004
2.795517e+002, 4.656740e+004
2.796035e+002, 4.638520e+004
2.796552e+002, 4.623557e+004
2.797069e+002, 4.643140e+004
2.797586e+002, 4.627133e+004
2.798104e+002, 4.636675e+004
2.798621e+002, 4.648568e+004
2.799138e+002, 4.612954e+004
2.799655e+002, 4.624511e+004
2.800172e+002, 4.646132e+004
2.800690e+002, 4.654337e+004
2.801207e+002, 4.656959e+004
2.801724e+002, 4.666658e+004
2.802242e+002, 4.684222e+004
2.802759e+002, 4.700464e+004
2.803276e+002, 4.733125e+004
2.803793e+002, 4.731988e+004
2.804310e+002, 4.712888e+004
2.804828e+002, 4.716699e+004
2.805345e+002, 4.737072e+004
2.805862e+002, 4.748730e+004
2.806379e+002, 4.771225e+004
2.806897e+002, 4.790386e+004
2.807414e+002, 4.797393e+004
2.807931e+002, 4.790789e+004
2.808448e+002, 4.790831e+004
2.808965e+002, 4.809112e+004
2.809483e+002, 4.832683e+004
2.810000e+002, 4.855339e+004
2.810517e+002, 4.898941e+004
2.811035e+002, 4.928969e+004
2.811552e+002, 4.946447e+004
2.812069e+002, 4.965916e+004
2.812586e+002, 4.989436e+004
2.813104e+002, 5.031393e+004
2.813621e+002, 5.051965e+004
2.814138e+002, 5.097084e+004
2.814655e+002, 5.135488e+004
2.815172e+002, 5.182163e+004
2.815690e+002, 5.280313e+004
2.816207e+002, 5.349264e+004
2.816724e+002, 5.388841e+004
2.817242e+002, 5.464396e+004
2.817759e+002, 5.557598e+004
2.818276e+002, 5.624666e+004
2.818793e+002, 5.716627e+004
2.819310e+002, 5.871719e+004
2.819828e+002, 5.988845e+004
2.820345e+002, 6.118357e+004
2.820862e+002, 6.298155e+004
2.821379e+002, 6.445737e+004
2.821897e+002, 6.642430e+004
2.822414e+002, 6.851779e+004
2.822931e+002, 7.055733e+004
2.823448e+002, 7.275130e+004
2.823965e+002, 7.531933e+004
2.824483e+002, 7.860887e+004
2.825000e+002, 8.199663e+004
2.825517e+002, 8.562531e+004
2.826035e+002, 8.947627e+004
2.826552e+002, 9.337903e+004
2.827069e+002, 9.770024e+004
2.827586e+002, 1.024963e+005
2.828104e+002, 1.074389e+005
2.828621e+002, 1.128250e+005
2.829138e+002, 1.184050e+005
2.829655e+002, 1.246258e+005
2.830172e+002, 1.313275e+005
2.830690e+002, 1.383288e+005
2.831207e+002, 1.452274e+005
2.831724e+002, 1.523969e+005
2.832242e+002, 1.594737e+005
2.832759e+002, 1.669771e+005
2.833276e+002, 1.744537e+005
2.833793e+002, 1.822573e+005
2.834310e+002, 1.899504e+005
2.834828e+002, 1.973144e+005
2.835345e+002, 2.052522e+005
2.835862e+002, 2.128308e+005
2.836379e+002, 2.195945e+005
2.836897e+002, 2.266437e+005
2.837414e+002, 2.333618e+005
2.837931e+002, 2.395663e+005
2.838448e+002, 2.452151e+005
2.838965e+002, 2.508175e+005
2.839483e+002, 2.561121e+005
2.840000e+002, 2.604476e+005
2.840517e+002, 2.639860e+005
2.841035e+002, 2.670276e+005
2.841552e+002, 2.700522e+005
2.842069e+002, 2.727807e+005
2.842586e+002, 2.746861e+005
2.843104e+002, 2.764690e+005
2.843621e+002, 2.775885e+005
2.844138e+002, 2.782268e+005
2.844655e+002, 2.786656e+005
2.845172e+002, 2.789738e+005
2.845690e+002, 2.787869e+005
2.846207e+002, 2.785682e+005
2.846724e+002, 2.780490e+005
2.847242e+002, 2.770845e+005
2.847759e+002, 2.764330e+005
2.848276e+002, 2.755709e+005
2.848793e+002, 2.741902e+005
2.849310e+002, 2.725625e+005
2.849828e+002, 2.710794e+005
2.850345e+002, 2.700301e+005
2.850862e+002, 2.684238e+005
2.851379e+002, 2.667339e+005
2.851897e+002, 2.650673e+005
2.852414e+002, 2.641049e+005
2.852931e+002, 2.626013e+005
2.853448e+002, 2.610507e+005
2.853965e+002, 2.603742e+005
2.854483e+002, 2.593618e+005
2.855000e+002, 2.580115e+005
2.855517e+002, 2.568602e+005
2.856035e+002, 2.559670e+005
2.856552e+002, 2.555686e+005
2.857069e+002, 2.542927e+005
2.857586e+002, 2.527905e+005
2.858104e+002, 2.518826e+005
2.858621e+002, 2.509060e+005
2.859138e+002, 2.496668e+005
2.859655e+002, 2.483976e+005
2.860172e+002, 2.478536e+005
2.860690e+002, 2.468843e+005
2.861207e+002, 2.459222e+005
2.861724e+002, 2.449496e+005
2.862242e+002, 2.440370e+005
2.862759e+002, 2.429360e+005
2.863276e+002, 2.422755e+005
2.863793e+002, 2.415304e+005
2.864310e+002, 2.405449e+005
2.864828e+002, 2.393657e+005
2.865345e+002, 2.386458e+005
2.865862e+002, 2.376244e+005
2.866379e+002, 2.368495e+005
2.866897e+002, 2.364642e+005
2.867414e+002, 2.358808e+005
2.867931e+002, 2.355338e+005
2.868448e+002, 2.354070e+005
2.868965e+002, 2.354165e+005
2.869483e+002, 2.351992e+005
2.870000e+002, 2.347326e+005
2.870517e+002, 2.341503e+005
2.871035e+002, 2.338997e+005
2.871552e+002, 2.336554e+005
2.872069e+002, 2.338175e+005
2.872586e+002, 2.343385e+005
2.873104e+002, 2.345717e+005
2.873621e+002, 2.342844e+005
2.874138e+002, 2.345138e+005
2.874655e+002, 2.349427e+005
2.875172e+002, 2.356640e+005
2.875690e+002, 2.365744e+005
2.876207e+002, 2.375021e+005
2.876724e+002, 2.382710e+005
2.877242e+002, 2.388400e+005
2.877759e+002, 2.398941e+005
2.878276e+002, 2.413039e+005
2.878793e+002, 2.427480e+005
2.879310e+002, 2.441286e+005
2.879828e+002, 2.448835e+005
2.880345e+002, 2.455969e+005
2.880862e+002, 2.470841e+005
2.881379e+002, 2.485205e+005
2.881897e+002, 2.505152e+005
2.882414e+002, 2.523123e+005
2.882931e+002, 2.541445e+005
2.883448e+002, 2.562715e+005
2.883965e+002, 2.583310e+005
2.884483e+002, 2.604445e+005
2.885000e+002, 2.622774e+005
2.885517e+002, 2.646917e+005
2.886035e+002, 2.672068e+005
2.886552e+002, 2.694324e+005
2.887069e+002, 2.722544e+005
2.887586e+002, 2.755524e+005
2.888104e+002, 2.782620e+005
2.888621e+002, 2.815214e+005
2.889138e+002, 2.847645e+005
2.889655e+002, 2.875542e+005
2.890172e+002, 2.908776e+005
2.890690e+002, 2.946474e+005
2.891207e+002, 2.984661e+005
2.891724e+002, 3.023748e+005
2.892242e+002, 3.057338e+005
2.892759e+002, 3.088995e+005
2.893276e+002, 3.122281e+005
2.893793e+002, 3.160559e+005
2.894310e+002, 3.204159e+005
2.894828e+002, 3.244591e+005
2.895345e+002, 3.288530e+005
2.895862e+002, 3.330575e+005
2.896379e+002, 3.374243e+005
2.896897e+002, 3.418751e+005
2.897414e+002, 3.460166e+005
2.897931e+002, 3.499885e+005
2.898448e+002, 3.547514e+005
2.898965e+002, 3.596650e+005
2.899483e+002, 3.636613e+005
2.900000e+002, 3.676529e+005
2.900517e+002, 3.717153e+005
2.901035e+002, 3.758726e+005
2.901552e+002, 3.799264e+005
2.902069e+002, 3.842173e+005
2.902586e+002, 3.889663e+005
2.903104e+002, 3.932438e+005
2.903621e+002, 3.966651e+005
2.904138e+002, 3.994412e+005
2.904655e+002, 4.025727e+005
2.905172e+002, 4.057274e+005
2.905690e+002, 4.086212e+005
2.906207e+002, 4.118217e+005
2.906724e+002, 4.156270e+005
2.907242e+002, 4.186477e+005
2.907759e+002, 4.214871e+005
2.908276e+002, 4.238999e+005
2.908793e+002, 4.260749e+005
2.909310e+002, 4.289828e+005
2.909828e+002, 4.323021e+005
2.910345e+002, 4.347589e+005
2.910862e+002, 4.364870e+005
2.911379e+002, 4.384840e+005
2.911897e+002, 4.409426e+005
2.912414e+002, 4.425198e+005
2.912931e+002, 4.445101e+005
2.913448e+002, 4.465055e+005
2.913965e+002, 4.486676e+005
2.914483e+002, 4.506985e+005
2.915000e+002, 4.526791e+005
2.915517e+002, 4.541403e+005
2.916035e+002, 4.556253e+005
2.916552e+002, 4.569571e+005
2.917069e+002, 4.576810e+005
2.917586e+002, 4.589025e+005
2.918104e+002, 4.602283e+005
2.918621e+002, 4.620854e+005
2.919138e+002, 4.626167e+005
2.919655e+002, 4.629285e+005
2.920172e+002, 4.635047e+005
2.920690e+002, 4.640582e+005
2.921207e+002, 4.644769e+005
2.921724e+002, 4.654637e+005
2.922242e+002, 4.667175e+005
2.922759e+002, 4.680721e+005
2.923276e+002, 4.682445e+005
2.923793e+002, 4.689780e+005
2.924310e+002, 4.688038e+005
2.924828e+002, 4.684796e+005
2.925345e+002, 4.689854e+005
2.925862e+002, 4.694809e+005
2.926379e+002, 4.703211e+005
2.926897e+002, 4.710098e+005
2.927414e+002, 4.715940e+005
2.927931e+002, 4.722490e+005
2.928448e+002, 4.723438e+005
2.928965e+002, 4.726973e+005
2.929483e+002, 4.726845e+005
2.930000e+002, 4.727097e+005
2.930517e+002, 4.733224e+005
2.931035e+002, 4.741199e+005
2.931552e+002, 4.746925e+005
2.932069e+002, 4.750793e+005
2.932586e+002, 4.756157e+005
2.933104e+002, 4.758143e+005
2.933621e+002, 4.763639e+005
2.934138e+002, 4.764030e+005
2.934655e+002, 4.766236e+005
2.935172e+002, 4.769408e+005
2.935690e+002, 4.769512e+005
2.936207e+002, 4.772168e+005
2.936724e+002, 4.770539e+005
2.937242e+002, 4.767662e+005
2.937759e+002, 4.771100e+005
2.938276e+002, 4.768133e+005
2.938793e+002, 4.770551e+005
2.939310e+002, 4.776958e+005
2.939828e+002, 4.784965e+005
2.940345e+002, 4.790404e+005
2.940862e+002, 4.790330e+005
2.941379e+002, 4.797121e+005
2.941897e+002, 4.795810e+005
2.942414e+002, 4.797273e+005
2.942931e+002, 4.796525e+005
2.943448e+002, 4.800262e+005
2.943965e+002, 4.805748e+005
2.944483e+002, 4.802064e+005
2.945000e+002, 4.799505e+005
2.945517e+002, 4.805783e+005
2.946035e+002, 4.808077e+005
2.946552e+002, 4.813690e+005
2.947069e+002, 4.823437e+005
2.947586e+002, 4.821956e+005
2.948104e+002, 4.813676e+005
2.948621e+002, 4.807979e+005
2.949138e+002, 4.811221e+005
2.949655e+002, 4.816364e+005
2.950172e+002, 4.816360e+005
2.950690e+002, 4.812758e+005
2.951207e+002, 4.812417e+005
2.951724e+002, 4.813164e+005
2.952242e+002, 4.813496e+005
2.952759e+002, 4.819311e+005
2.953276e+002, 4.824564e+005
2.953793e+002, 4.826326e+005
2.954310e+002, 4.826154e+005
2.954828e+002, 4.834355e+005
2.955345e+002, 4.833470e+005
2.955862e+002, 4.829667e+005
2.956379e+002, 4.832683e+005
2.956897e+002, 4.829284e+005
2.957414e+002, 4.834282e+005
2.957931e+002, 4.839550e+005
2.958448e+002, 4.845352e+005
2.958965e+002, 4.847339e+005
2.959483e+002, 4.846287e+005
2.960000e+002, 4.845698e+005
2.960517e+002, 4.844772e+005
2.961035e+002, 4.843309e+005
2.961552e+002, 4.840960e+005
2.962069e+002, 4.840951e+005
2.962586e+002, 4.843338e+005
2.963104e+002, 4.850882e+005
2.963621e+002, 4.853923e+005
2.964138e+002, 4.852067e+005
2.964655e+002, 4.850195e+005
2.965172e+002, 4.849149e+005
2.965690e+002, 4.846509e+005
2.966207e+002, 4.849203e+005
2.966724e+002, 4.852000e+005
2.967242e+002, 4.858458e+005
2.967759e+002, 4.859862e+005
2.968276e+002, 4.857836e+005
2.968793e+002, 4.856626e+005
2.969310e+002, 4.857271e+005
2.969828e+002, 4.860052e+005
2.970345e+002, 4.864614e+005
2.970862e+002, 4.862970e+005
2.971379e+002, 4.856924e+005
2.971897e+002, 4.856210e+005
2.972414e+002, 4.861506e+005
2.972931e+002, 4.862813e+005
2.973448e+002, 4.859863e+005
2.973965e+002, 4.854651e+005
2.974483e+002, 4.856131e+005
2.975000e+002, 4.846195e+005
2.975517e+002, 4.838857e+005
2.976035e+002, 4.834579e+005
2.976552e+002, 4.844403e+005
2.977069e+002, 4.840829e+005
2.977586e+002, 4.834176e+005
2.978104e+002, 4.831492e+005
2.978621e+002, 4.831076e+005
2.979138e+002, 4.836172e+005
2.979655e+002, 4.832415e+005
2.980172e+002, 4.824948e+005
2.980690e+002, 4.826904e+005
2.981207e+002, 4.824088e+005
2.981724e+002, 4.823993e+005
2.982242e+002, 4.819811e+005
2.982759e+002, 4.812910e+005
2.983276e+002, 4.809224e+005
2.983793e+002, 4.807623e+005
2.984310e+002, 4.810418e+005
2.984828e+002, 4.810348e+005
2.985345e+002, 4.805990e+005
2.985862e+002, 4.798895e+005
2.986379e+002, 4.797939e+005
2.986897e+002, 4.793067e+005
2.987414e+002, 4.785028e+005
2.987931e+002, 4.787010e+005
2.988448e+002, 4.780977e+005
2.988965e+002, 4.773152e+005
2.989483e+002, 4.766814e+005
2.990000e+002, 4.764488e+005
2.990517e+002, 4.760973e+005
2.991035e+002, 4.759385e+005
2.991552e+002, 4.757929e+005
2.992069e+002, 4.749754e+005
2.992586e+002, 4.747666e+005
2.993104e+002, 4.744324e+005
2.993621e+002, 4.741543e+005
2.994138e+002, 4.738797e+005
2.994655e+002, 4.734305e+005
2.995172e+002, 4.729562e+005
2.995690e+002, 4.718912e+005
2.996207e+002, 4.710629e+005
2.996724e+002, 4.711955e+005
2.997242e+002, 4.711051e+005
2.997759e+002, 4.710804e+005
2.998276e+002, 4.706363e+005
2.998793e+002, 4.701363e+005
2.999310e+002, 4.690388e+005
2.999828e+002, 4.680893e+005
3.000345e+002, 4.673865e+005
3.000862e+002, 4.666586e+005
3.001379e+002, 4.660947e+005
3.001897e+002, 4.661506e+005
3.002414e+002, 4.663025e+005
3.002931e+002, 4.659403e+005
3.003448e+002, 4.652729e+005
3.003965e+002, 4.645583e+005
3.004483e+002, 4.636743e+005
3.005000e+002, 4.626814e+005
3.005517e+002, 4.623287e+005
3.006035e+002, 4.616545e+005
3.006552e+002, 4.612902e+005
3.007069e+002, 4.606623e+005
3.007586e+002, 4.602156e+005
3.008104e+002, 4.601405e+005
3.008621e+002, 4.594819e+005
3.009138e+002, 4.578738e+005
3.009655e+002, 4.580703e+005
3.010172e+002, 4.580600e+005
3.010690e+002, 4.564127e+005
3.011207e+002, 4.551154e+005
3.011724e+002, 4.545175e+005
3.012242e+002, 4.540011e+005
3.012759e+002, 4.531537e+005
3.013276e+002, 4.526154e+005
3.013793e+002, 4.518163e+005
3.014310e+002, 4.511053e+005
3.014828e+002, 4.499116e+005
3.015345e+002, 4.495175e+005
3.015862e+002, 4.488641e+005
3.016379e+002, 4.481615e+005
3.016897e+002, 4.477079e+005
3.017414e+002, 4.469385e+005
3.017931e+002, 4.462692e+005
3.018448e+002, 4.460971e+005
3.018965e+002, 4.455738e+005
3.019483e+002, 4.442128e+005
3.020000e+002, 4.432246e+005
3.020517e+002, 4.429658e+005
3.021035e+002, 4.425725e+005
3.021552e+002, 4.417171e+005
3.022069e+002, 4.413748e+005
3.022586e+002, 4.411524e+005
3.023104e+002, 4.404837e+005
3.023621e+002, 4.391975e+005
3.024138e+002, 4.378688e+005
3.024655e+002, 4.372748e+005
3.025172e+002, 4.374045e+005
3.025690e+002, 4.366039e+005
3.026207e+002, 4.353919e+005
3.026724e+002, 4.342168e+005
3.027242e+002, 4.331627e+005
3.027759e+002, 4.325939e+005
3.028276e+002, 4.322637e+005
3.028793e+002, 4.319854e+005
3.029310e+002, 4.316387e+005
3.029828e+002, 4.302598e+005
3.030345e+002, 4.285037e+005
3.030862e+002, 4.276679e+005
3.031379e+002, 4.275915e+005
3.031897e+002, 4.268853e+005
3.032414e+002, 4.259177e+005
3.032931e+002, 4.251364e+005
3.033448e+002, 4.240448e+005
3.033965e+002, 4.231932e+005
3.034483e+002, 4.219683e+005
3.035000e+002, 4.207094e+005
3.035517e+002, 4.198072e+005
3.036035e+002, 4.191462e+005
3.036552e+002, 4.187469e+005
3.037069e+002, 4.183847e+005
3.037586e+002, 4.183190e+005
3.038104e+002, 4.178363e+005
3.038621e+002, 4.171490e+005
3.039138e+002, 4.161969e+005
3.039655e+002, 4.149466e+005
3.040172e+002, 4.138138e+005
3.040690e+002, 4.134668e+005
3.041207e+002, 4.119475e+005
3.041724e+002, 4.109116e+005
3.042242e+002, 4.098488e+005
3.042759e+002, 4.096658e+005
3.043276e+002, 4.095388e+005
3.043793e+002, 4.082720e+005
3.044310e+002, 4.076357e+005
3.044828e+002, 4.069389e+005
3.045345e+002, 4.058751e+005
3.045862e+002, 4.048679e+005
3.046379e+002, 4.038662e+005
3.046897e+002, 4.028037e+005
3.047414e+002, 4.020704e+005
3.047931e+002, 4.003113e+005
3.048448e+002, 3.991497e+005
3.048965e+002, 3.984175e+005
3.049483e+002, 3.978753e+005
3.050000e+002, 3.970965e+005
3.050517e+002, 3.960238e+005
3.051035e+002, 3.946234e+005
3.051552e+002, 3.928846e+005
3.052069e+002, 3.921458e+005
3.052586e+002, 3.916813e+005
3.053104e+002, 3.906147e+005
3.053621e+002, 3.897833e+005
3.054138e+002, 3.890338e+005
3.054655e+002, 3.884298e+005
3.055172e+002, 3.878604e+005
3.055690e+002, 3.871639e+005
3.056207e+002, 3.855966e+005
3.056724e+002, 3.841515e+005
3.057242e+002, 3.829683e+005
3.057759e+002, 3.818687e+005
3.058276e+002, 3.808878e+005
3.058793e+002, 3.796809e+005
3.059310e+002, 3.788694e+005
3.059828e+002, 3.786329e+005
3.060345e+002, 3.785740e+005
3.060862e+002, 3.770514e+005
3.061379e+002, 3.757965e+005
3.061897e+002, 3.749111e+005
3.062414e+002, 3.730983e+005
3.062931e+002, 3.715435e+005
3.063448e+002, 3.704182e+005
3.063965e+002, 3.696793e+005
3.064483e+002, 3.687159e+005
3.065000e+002, 3.679528e+005
3.065517e+002, 3.667517e+005
3.066035e+002, 3.654602e+005
3.066552e+002, 3.644753e+005
3.067069e+002, 3.641624e+005
3.067586e+002, 3.631339e+005
3.068104e+002, 3.620943e+005
3.068621e+002, 3.615004e+005
3.069138e+002, 3.602044e+005
3.069655e+002, 3.593473e+005
3.070172e+002, 3.591049e+005
3.070690e+002, 3.578242e+005
3.071207e+002, 3.563673e+005
3.071724e+002, 3.553026e+005
3.072242e+002, 3.541225e+005
3.072759e+002, 3.539523e+005
3.073276e+002, 3.530547e+005
3.073793e+002, 3.511760e+005
3.074310e+002, 3.503381e+005
3.074828e+002, 3.494396e+005
3.075345e+002, 3.487264e+005
3.075862e+002, 3.474778e+005
3.076379e+002, 3.462411e+005
3.076897e+002, 3.448753e+005
3.077414e+002, 3.434077e+005
3.077931e+002, 3.426760e+005
3.078448e+002, 3.422006e+005
3.078965e+002, 3.415047e+005
3.079483e+002, 3.405053e+005
3.080000e+002, 3.399297e+005
3.080517e+002, 3.395901e+005
3.081035e+002, 3.376318e+005
3.081552e+002, 3.359726e+005
3.082069e+002, 3.354294e+005
3.082586e+002, 3.348533e+005
3.083104e+002, 3.333721e+005
3.083621e+002, 3.324095e+005
3.084138e+002, 3.315244e+005
3.084655e+002, 3.303823e+005
3.085172e+002, 3.287443e+005
3.085690e+002, 3.279592e+005
3.086207e+002, 3.277093e+005
3.086724e+002, 3.270268e+005
3.087242e+002, 3.256966e+005
3.087759e+002, 3.246408e+005
3.088276e+002, 3.237907e+005
3.088793e+002, 3.225130e+005
3.089310e+002, 3.215346e+005
3.089828e+002, 3.210356e+005
3.090345e+002, 3.206309e+005
3.090862e+002, 3.200131e+005
3.091379e+002, 3.187902e+005
3.091897e+002, 3.175582e+005
3.092414e+002, 3.169470e+005
3.092931e+002, 3.157888e+005
3.093448e+002, 3.149114e+005
3.093965e+002, 3.144366e+005
3.094483e+002, 3.141455e+005
3.095000e+002, 3.134795e+005
3.095517e+002, 3.120995e+005
3.096035e+002, 3.108671e+005
3.096552e+002, 3.098464e+005
3.097069e+002, 3.089518e+005
3.097586e+002, 3.087995e+005
3.098104e+002, 3.081662e+005
3.098621e+002, 3.068426e+005
3.099138e+002, 3.060492e+005
3.099655e+002, 3.054320e+005
3.100172e+002, 3.051251e+005
3.100690e+002, 3.041449e+005
3.101207e+002, 3.037334e+005
3.101724e+002, 3.031786e+005
3.102242e+002, 3.028629e+005
3.102759e+002, 3.029110e+005
3.103276e+002, 3.017182e+005
3.103793e+002, 3.006399e+005
3.104310e+002, 2.997044e+005
3.104828e+002, 2.991510e+005
3.105345e+002, 2.985073e+005
3.105862e+002, 2.978360e+005
3.106379e+002, 2.967259e+005
3.106897e+002, 2.958996e+005
3.107414e+002, 2.950892e+005
3.107931e+002, 2.941737e+005
3.108448e+002, 2.933754e+005
3.108965e+002, 2.935995e+005
3.109483e+002, 2.931128e+005
3.110000e+002, 2.925707e+005
3.110517e+002, 2.919405e+005
3.111035e+002, 2.910906e+005
3.111552e+002, 2.901211e+005
3.112069e+002, 2.894458e+005
3.112586e+002, 2.887512e+005
3.113104e+002, 2.886338e+005
3.113621e+002, 2.888108e+005
3.114138e+002, 2.884555e+005
3.114655e+002, 2.875983e+005
3.115172e+002, 2.863452e+005
3.115690e+002, 2.855915e+005
3.116207e+002, 2.851165e+005
3.116724e+002, 2.847579e+005
3.117242e+002, 2.847029e+005
3.117759e+002, 2.845637e+005
3.118276e+002, 2.841380e+005
3.118793e+002, 2.833727e+005
3.119310e+002, 2.826291e+005
3.119828e+002, 2.817771e+005
3.120345e+002, 2.809204e+005
3.120862e+002, 2.801316e+005
3.121379e+002, 2.798095e+005
3.121897e+002, 2.801476e+005
3.122414e+002, 2.798359e+005
3.122931e+002, 2.791136e+005
3.123448e+002, 2.788961e+005
3.123965e+002, 2.779584e+005
3.124483e+002, 2.772880e+005
3.125000e+002, 2.767794e+005
3.125517e+002, 2.764205e+005
3.126035e+002, 2.767776e+005
3.126552e+002, 2.763539e+005
3.127069e+002, 2.761290e+005
3.127586e+002, 2.760881e+005
3.128104e+002, 2.757104e+005
3.128621e+002, 2.754043e+005
3.129138e+002, 2.748012e+005
3.129655e+002, 2.743608e+005
3.130172e+002, 2.737926e+005
3.130690e+002, 2.731954e+005
3.131207e+002, 2.723184e+005
3.131724e+002, 2.722536e+005
3.132242e+002, 2.721071e+005
3.132759e+002, 2.717065e+005
3.133276e+002, 2.715465e+005
3.133793e+002, 2.713574e+005
3.134310e+002, 2.711596e+005
3.134828e+002, 2.706938e+005
3.135345e+002, 2.699254e+005
3.135862e+002, 2.693014e+005
3.136379e+002, 2.689353e+005
3.136897e+002, 2.685252e+005
3.137414e+002, 2.689891e+005
3.137931e+002, 2.692694e+005
3.138448e+002, 2.689571e+005
3.138965e+002, 2.682782e+005
3.139483e+002, 2.680565e+005
3.140000e+002, 2.679422e+005
3.140517e+002, 2.678763e+005
3.141035e+002, 2.673448e+005
3.141552e+002, 2.669889e+005
3.142069e+002, 2.665331e+005
3.142586e+002, 2.663581e+005
3.143104e+002, 2.663575e+005
3.143621e+002, 2.663128e+005
3.144138e+002, 2.658689e+005
3.144655e+002, 2.653181e+005
3.145172e+002, 2.645632e+005
3.145690e+002, 2.647388e+005
3.146207e+002, 2.647788e+005
3.146724e+002, 2.644088e+005
3.147242e+002, 2.642880e+005
3.147759e+002, 2.638271e+005
3.148276e+002, 2.636262e+005
3.148793e+002, 2.636114e+005
3.149310e+002, 2.632674e+005
3.149828e+002, 2.628245e+005
3.150345e+002, 2.625148e+005
3.150862e+002, 2.624016e+005
3.151379e+002, 2.620973e+005
3.151897e+002, 2.619578e+005
3.152414e+002, 2.618359e+005
3.152931e+002, 2.614508e+005
3.153448e+002, 2.616780e+005
3.153965e+002, 2.616504e+005
3.154483e+002, 2.615781e+005
3.155000e+002, 2.616870e+005
3.155517e+002, 2.611977e+005
3.156035e+002, 2.611884e+005
3.156552e+002, 2.611685e+005
3.157069e+002, 2.610904e+005
3.157586e+002, 2.602955e+005
3.158104e+002, 2.600593e+005
3.158621e+002, 2.599737e+005
3.159138e+002, 2.593977e+005
3.159655e+002, 2.591549e+005
3.160172e+002, 2.587123e+005
3.160690e+002, 2.586270e+005
3.161207e+002, 2.590974e+005
3.161724e+002, 2.589220e+005
3.162242e+002, 2.583596e+005
3.162759e+002, 2.580240e+005
3.163276e+002, 2.582108e+005
3.163793e+002, 2.583413e+005
3.164310e+002, 2.579846e+005
3.164828e+002, 2.571969e+005
3.165345e+002, 2.567507e+005
3.165862e+002, 2.566163e+005
3.166379e+002, 2.573034e+005
3.166897e+002, 2.571025e+005
3.167414e+002, 2.573423e+005
3.167931e+002, 2.575817e+005
3.168448e+002, 2.568885e+005
3.168965e+002, 2.569730e+005
3.169483e+002, 2.572815e+005
3.170000e+002, 2.564813e+005
3.170517e+002, 2.561445e+005
3.171035e+002, 2.560007e+005
3.171552e+002, 2.557945e+005
3.172069e+002, 2.560193e+005
3.172586e+002, 2.560047e+005
3.173104e+002, 2.555546e+005
3.173621e+002, 2.554483e+005
3.174138e+002, 2.554320e+005
3.174655e+002, 2.548980e+005
3.175173e+002, 2.550538e+005
3.175690e+002, 2.549643e+005
3.176207e+002, 2.544165e+005
3.176724e+002, 2.544516e+005
3.177242e+002, 2.540868e+005
3.177759e+002, 2.539880e+005
3.178276e+002, 2.538547e+005
3.178793e+002, 2.539130e+005
3.179310e+002, 2.538772e+005
3.179828e+002, 2.536194e+005
3.180345e+002, 2.530555e+005
3.180862e+002, 2.527947e+005
3.181379e+002, 2.531834e+005
3.181897e+002, 2.528253e+005
3.182414e+002, 2.527027e+005
3.182931e+002, 2.529826e+005
3.183448e+002, 2.531921e+005
3.183965e+002, 2.532884e+005
3.184483e+002, 2.528618e+005
3.185000e+002, 2.524760e+005
3.185517e+002, 2.527094e+005
3.186035e+002, 2.532534e+005
3.186552e+002, 2.531448e+005
3.187069e+002, 2.526226e+005
3.187586e+002, 2.526885e+005
3.188104e+002, 2.525316e+005
3.188621e+002, 2.523432e+005
3.189138e+002, 2.521292e+005
3.189655e+002, 2.523207e+005
3.190173e+002, 2.524809e+005
3.190690e+002, 2.522604e+005
3.191207e+002, 2.520880e+005
3.191724e+002, 2.513854e+005
3.192242e+002, 2.517959e+005
3.192759e+002, 2.515130e+005
3.193276e+002, 2.506945e+005
3.193793e+002, 2.508194e+005
3.194310e+002, 2.505763e+005
3.194828e+002, 2.508321e+005
3.195345e+002, 2.508942e+005
3.195862e+002, 2.505111e+005
3.196379e+002, 2.506272e+005
3.196897e+002, 2.505194e+005
3.197414e+002, 2.504494e+005
3.197931e+002, 2.502497e+005
3.198448e+002, 2.503583e+005
3.198965e+002, 2.501317e+005
3.199483e+002, 2.500956e+005
3.200000e+002, 2.501752e+005
3.200517e+002, 2.497400e+005
3.201035e+002, 2.496791e+005
3.201552e+002, 2.494051e+005
3.202069e+002, 2.493324e+005
3.202586e+002, 2.495528e+005
3.203104e+002, 2.498962e+005
3.203621e+002, 2.504706e+005
3.204138e+002, 2.505947e+005
3.204655e+002, 2.500627e+005
3.205173e+002, 2.494779e+005
3.205690e+002, 2.494049e+005
3.206207e+002, 2.491283e+005
3.206724e+002, 2.485866e+005
3.207242e+002, 2.488657e+005
3.207759e+002, 2.496125e+005
3.208276e+002, 2.494210e+005
3.208793e+002, 2.488413e+005
3.209310e+002, 2.492409e+005
3.209828e+002, 2.494668e+005
3.210345e+002, 2.494532e+005
3.210862e+002, 2.490964e+005
3.211379e+002, 2.488637e+005
3.211897e+002, 2.487849e+005
3.212414e+002, 2.482040e+005
3.212931e+002, 2.479717e+005
3.213448e+002, 2.482897e+005
3.213965e+002, 2.480960e+005
3.214483e+002, 2.481621e+005
3.215000e+002, 2.476851e+005
3.215517e+002, 2.475391e+005
3.216035e+002, 2.480729e+005
3.216552e+002, 2.480860e+005
3.217069e+002, 2.482091e+005
3.217586e+002, 2.485626e+005
3.218104e+002, 2.486556e+005
3.218621e+002, 2.483536e+005
3.219138e+002, 2.479246e+005
3.219655e+002, 2.481204e+005
3.220173e+002, 2.481611e+005
3.220690e+002, 2.484177e+005
3.221207e+002, 2.480317e+005
3.221724e+002, 2.477297e+005
3.222242e+002, 2.477205e+005
3.222759e+002, 2.476504e+005
3.223276e+002, 2.479663e+005
3.223793e+002, 2.475882e+005
3.224310e+002, 2.477081e+005
3.224828e+002, 2.477756e+005
3.225345e+002, 2.475260e+005
3.225862e+002, 2.473753e+005
3.226379e+002, 2.476137e+005
3.226897e+002, 2.472390e+005
3.227414e+002, 2.468358e+005
3.227931e+002, 2.470003e+005
3.228448e+002, 2.465945e+005
3.228965e+002, 2.470143e+005
3.229483e+002, 2.476818e+005
3.230000e+002, 2.474122e+005
3.230517e+002, 2.471660e+005
3.231035e+002, 2.471304e+005
3.231552e+002, 2.473388e+005
3.232069e+002, 2.471784e+005
3.232586e+002, 2.471417e+005
3.233104e+002, 2.468450e+005
3.233621e+002, 2.467338e+005
3.234138e+002, 2.465062e+005
3.234655e+002, 2.461663e+005
3.235173e+002, 2.460567e+005
3.235690e+002, 2.464200e+005
3.236207e+002, 2.462706e+005
3.236724e+002, 2.460658e+005
3.237242e+002, 2.463072e+005
3.237759e+002, 2.466015e+005
3.238276e+002, 2.464425e+005
3.238793e+002, 2.461910e+005
3.239310e+002, 2.458736e+005
3.239828e+002, 2.453411e+005
3.240345e+002, 2.451283e+005
3.240862e+002, 2.453059e+005
3.241379e+002, 2.448668e+005
3.241897e+002, 2.450732e+005
3.242414e+002, 2.454283e+005
3.242931e+002, 2.456350e+005
3.243448e+002, 2.460470e+005
3.243965e+002, 2.460323e+005
3.244483e+002, 2.457387e+005
3.245000e+002, 2.454423e+005
3.245517e+002, 2.451590e+005
3.246035e+002, 2.449818e+005
3.246552e+002, 2.447048e+005
3.247069e+002, 2.450392e+005
3.247586e+002, 2.452998e+005
3.248104e+002, 2.457778e+005
3.248621e+002, 2.456251e+005
3.249138e+002, 2.456460e+005
3.249655e+002, 2.455499e+005
3.250173e+002, 2.451592e+005
3.250690e+002, 2.449175e+005
3.251207e+002, 2.448061e+005
3.251724e+002, 2.443014e+005
3.252242e+002, 2.440354e+005
3.252759e+002, 2.444316e+005
3.253276e+002, 2.445170e+005
3.253793e+002, 2.444300e+005
3.254310e+002, 2.445106e+005
3.254828e+002, 2.444734e+005
3.255345e+002, 2.440970e+005
3.255862e+002, 2.434751e+005
3.256379e+002, 2.429847e+005
3.256897e+002, 2.431736e+005
3.257414e+002, 2.436118e+005
3.257931e+002, 2.437721e+005
3.258448e+002, 2.441750e+005
3.258965e+002, 2.440468e+005
3.259483e+002, 2.434579e+005
3.260000e+002, 2.437922e+005
3.260517e+002, 2.437843e+005
3.261035e+002, 2.436704e+005
3.261552e+002, 2.437020e+005
3.262069e+002, 2.438602e+005
3.262586e+002, 2.430625e+005
3.263104e+002, 2.427712e+005
3.263621e+002, 2.427467e+005
3.264138e+002, 2.426305e+005
3.264655e+002, 2.424981e+005
3.265173e+002, 2.427480e+005
3.265690e+002, 2.429396e+005
3.266207e+002, 2.425611e+005
3.266724e+002, 2.425158e+005
3.267242e+002, 2.427438e+005
3.267759e+002, 2.423097e+005
3.268276e+002, 2.418049e+005
3.268793e+002, 2.416102e+005
3.269310e+002, 2.414922e+005
3.269828e+002, 2.411701e+005
3.270345e+002, 2.412938e+005
3.270862e+002, 2.414602e+005
3.271379e+002, 2.416953e+005
3.271897e+002, 2.416128e+005
3.272414e+002, 2.417781e+005
3.272931e+002, 2.418053e+005
3.273448e+002, 2.414000e+005
3.273965e+002, 2.412452e+005
3.274483e+002, 2.411732e+005
3.275000e+002, 2.409637e+005
3.275517e+002, 2.408116e+005
3.276035e+002, 2.411990e+005
3.276552e+002, 2.414768e+005
3.277069e+002, 2.411310e+005
3.277586e+002, 2.406990e+005
3.278104e+002, 2.401918e+005
3.278621e+002, 2.395295e+005
3.279138e+002, 2.394124e+005
3.279655e+002, 2.395336e+005
3.280173e+002, 2.396564e+005
3.280690e+002, 2.392368e+005
3.281207e+002, 2.390455e+005
3.281724e+002, 2.390655e+005
3.282242e+002, 2.393687e+005
3.282759e+002, 2.393150e+005
3.283276e+002, 2.389645e+005
3.283793e+002, 2.385048e+005
3.284310e+002, 2.386978e+005
3.284828e+002, 2.387575e+005
3.285345e+002, 2.384645e+005
3.285862e+002, 2.381168e+005
3.286379e+002, 2.383856e+005
3.286897e+002, 2.384776e+005
3.287414e+002, 2.383949e+005
3.287931e+002, 2.380133e+005
3.288448e+002, 2.380216e+005
3.288965e+002, 2.375869e+005
3.289483e+002, 2.367782e+005
3.290000e+002, 2.368613e+005
3.290517e+002, 2.371422e+005
3.291035e+002, 2.373616e+005
3.291552e+002, 2.369025e+005
3.292069e+002, 2.363601e+005
3.292586e+002, 2.361368e+005
3.293104e+002, 2.368923e+005
3.293621e+002, 2.369300e+005
3.294138e+002, 2.365616e+005
3.294655e+002, 2.365640e+005
3.295173e+002, 2.363359e+005
3.295690e+002, 2.359558e+005
3.296207e+002, 2.356613e+005
3.296724e+002, 2.354235e+005
3.297242e+002, 2.351418e+005
3.297759e+002, 2.350516e+005
3.298276e+002, 2.350781e+005
3.298793e+002, 2.351226e+005
3.299310e+002, 2.353473e+005
3.299828e+002, 2.350561e+005
3.300345e+002, 2.344740e+005
3.300862e+002, 2.343606e+005
3.301379e+002, 2.339316e+005
3.301897e+002, 2.331272e+005
3.302414e+002, 2.329710e+005
3.302931e+002, 2.330045e+005
3.303448e+002, 2.330969e+005
3.303965e+002, 2.332389e+005
3.304483e+002, 2.332815e+005
3.305000e+002, 2.331861e+005
3.305517e+002, 2.330258e+005
3.306035e+002, 2.328458e+005
3.306552e+002, 2.329016e+005
3.307069e+002, 2.327520e+005
3.307586e+002, 2.322562e+005
3.308104e+002, 2.323706e+005
3.308621e+002, 2.322983e+005
3.309138e+002, 2.317794e+005
3.309655e+002, 2.314694e+005
3.310173e+002, 2.310868e+005
3.310690e+002, 2.312826e+005
3.311207e+002, 2.312680e+005
3.311724e+002, 2.309023e+005
3.312242e+002, 2.301576e+005
3.312759e+002, 2.298820e+005
3.313276e+002, 2.298854e+005
3.313793e+002, 2.303109e+005
3.314310e+002, 2.307382e+005
3.314828e+002, 2.312216e+005
3.315345e+002, 2.308596e+005
3.315862e+002, 2.301922e+005
3.316379e+002, 2.295311e+005
3.316897e+002, 2.295094e+005
3.317414e+002, 2.295594e+005
3.317931e+002, 2.293184e+005
3.318448e+002, 2.288198e+005
3.318965e+002, 2.282463e+005
3.319483e+002, 2.278546e+005
3.320000e+002, 2.280311e+005
3.320517e+002, 2.284156e+005
3.321035e+002, 2.279854e+005
3.321552e+002, 2.278611e+005
3.322069e+002, 2.279229e+005
3.322586e+002, 2.278155e+005
3.323104e+002, 2.275708e+005
3.323621e+002, 2.271227e+005
3.324138e+002, 2.266258e+005
3.324655e+002, 2.268543e+005
3.325173e+002, 2.264026e+005
3.325690e+002, 2.264308e+005
3.326207e+002, 2.262316e+005
3.326724e+002, 2.256428e+005
3.327242e+002, 2.257925e+005
3.327759e+002, 2.255570e+005
3.328276e+002, 2.252279e+005
3.328793e+002, 2.253044e+005
3.329310e+002, 2.253537e+005
3.329828e+002, 2.251355e+005
3.330345e+002, 2.245685e+005
3.330862e+002, 2.235423e+005
3.331379e+002, 2.231537e+005
3.331897e+002, 2.234153e+005
3.332414e+002, 2.236543e+005
3.332931e+002, 2.236595e+005
3.333448e+002, 2.236298e+005
3.333965e+002, 2.233647e+005
3.334483e+002, 2.228396e+005
3.335000e+002, 2.228612e+005
3.335517e+002, 2.226950e+005
3.336035e+002, 2.224362e+005
3.336552e+002, 2.226055e+005
3.337069e+002, 2.223517e+005
3.337586e+002, 2.220495e+005
3.338104e+002, 2.217311e+005
3.338621e+002, 2.215048e+005
3.339138e+002, 2.215349e+005
3.339655e+002, 2.211853e+005
3.340173e+002, 2.205827e+005
3.340690e+002, 2.205380e+005
3.341207e+002, 2.209399e+005
3.341724e+002, 2.205988e+005
3.342242e+002, 2.202461e+005
3.342759e+002, 2.201622e+005
3.343276e+002, 2.203034e+005
3.343793e+002, 2.195592e+005
3.344310e+002, 2.193333e+005
3.344828e+002, 2.193517e+005
3.345345e+002, 2.192050e+005
3.345862e+002, 2.192929e+005
3.346379e+002, 2.191105e+005
3.346897e+002, 2.186016e+005
3.347414e+002, 2.185395e+005
3.347931e+002, 2.185560e+005
3.348448e+002, 2.183020e+005
3.348965e+002, 2.175883e+005
3.349483e+002, 2.172632e+005
3.350000e+002, 2.172750e+005
3.350517e+002, 2.173194e+005
3.351035e+002, 2.175307e+005
3.351552e+002, 2.172910e+005
3.352069e+002, 2.169329e+005
3.352586e+002, 2.168662e+005
3.353104e+002, 2.163684e+005
3.353621e+002, 2.162401e+005
3.354138e+002, 2.157624e+005
3.354655e+002, 2.156025e+005
3.355173e+002, 2.153416e+005
3.355690e+002, 2.152543e+005
3.356207e+002, 2.152831e+005
3.356724e+002, 2.152955e+005
3.357242e+002, 2.150224e+005
3.357759e+002, 2.147040e+005
3.358276e+002, 2.148963e+005
3.358793e+002, 2.148679e+005
3.359310e+002, 2.144062e+005
3.359828e+002, 2.147581e+005
3.360345e+002, 2.145394e+005
3.360862e+002, 2.145815e+005
3.361379e+002, 2.144553e+005
3.361897e+002, 2.141789e+005
3.362414e+002, 2.135350e+005
3.362931e+002, 2.131664e+005
3.363448e+002, 2.130245e+005
3.363965e+002, 2.126795e+005
3.364483e+002, 2.126706e+005
3.365000e+002, 2.125704e+005
3.365517e+002, 2.124696e+005
3.366035e+002, 2.124774e+005
3.366552e+002, 2.123832e+005
3.367069e+002, 2.116959e+005
3.367586e+002, 2.111407e+005
3.368104e+002, 2.109751e+005
3.368621e+002, 2.111263e+005
3.369138e+002, 2.111927e+005
3.369655e+002, 2.107758e+005
3.370173e+002, 2.104719e+005
3.370690e+002, 2.104127e+005
3.371207e+002, 2.104175e+005
3.371724e+002, 2.102209e+005
3.372242e+002, 2.106122e+005
3.372759e+002, 2.104976e+005
3.373276e+002, 2.100317e+005
3.373793e+002, 2.094577e+005
3.374310e+002, 2.094726e+005
3.374828e+002, 2.094692e+005
3.375345e+002, 2.094400e+005
3.375862e+002, 2.091056e+005
3.376379e+002, 2.087300e+005
3.376897e+002, 2.085203e+005
3.377414e+002, 2.084848e+005
3.377931e+002, 2.086764e+005
3.378448e+002, 2.085804e+005
3.378965e+002, 2.081271e+005
3.379483e+002, 2.078343e+005
3.380000e+002, 2.077671e+005
3.380517e+002, 2.076272e+005
3.381035e+002, 2.070955e+005
3.381552e+002, 2.069197e+005
3.382069e+002, 2.068194e+005
3.382586e+002, 2.066862e+005
3.383104e+002, 2.066899e+005
3.383621e+002, 2.069618e+005
3.384138e+002, 2.068246e+005
3.384655e+002, 2.062413e+005
3.385173e+002, 2.057510e+005
3.385690e+002, 2.057336e+005
3.386207e+002, 2.058736e+005
3.386724e+002, 2.052918e+005
3.387242e+002, 2.050146e+005
3.387759e+002, 2.047925e+005
3.388276e+002, 2.047820e+005
3.388793e+002, 2.043503e+005
3.389310e+002, 2.040172e+005
3.389828e+002, 2.034610e+005
3.390345e+002, 2.037300e+005
3.390862e+002, 2.038564e+005
3.391379e+002, 2.037095e+005
3.391897e+002, 2.038652e+005
3.392414e+002, 2.038433e+005
3.392931e+002, 2.034353e+005
3.393448e+002, 2.035569e+005
3.393965e+002, 2.033968e+005
3.394483e+002, 2.033371e+005
3.395000e+002, 2.031032e+005
3.395517e+002, 2.027510e+005
3.396035e+002, 2.023626e+005
3.396552e+002, 2.025671e+005
3.397069e+002, 2.032110e+005
3.397586e+002, 2.027435e+005
3.398104e+002, 2.019443e+005
3.398621e+002, 2.022338e+005
3.399138e+002, 2.021899e+005
3.399655e+002, 2.018850e+005
3.400173e+002, 2.017189e+005
3.400690e+002, 2.017066e+005
3.401207e+002, 2.013274e+005
3.401724e+002, 2.012439e+005
3.402242e+002, 2.005309e+005
3.402759e+002, 2.000420e+005
3.403276e+002, 2.004212e+005
3.403793e+002, 2.006658e+005
3.404310e+002, 2.004564e+005
3.404828e+002, 2.005698e+005
3.405345e+002, 2.004365e+005
3.405862e+002, 1.999348e+005
3.406379e+002, 1.999848e+005
3.406897e+002, 2.003290e+005
3.407414e+002, 2.001144e+005
3.407931e+002, 1.997368e+005
3.408448e+002, 1.994538e+005
3.408965e+002, 1.992196e+005
3.409483e+002, 1.991710e+005
3.410000e+002, 1.984887e+005
3.410517e+002, 1.984665e+005
3.411035e+002, 1.984623e+005
3.411552e+002, 1.981307e+005
3.412069e+002, 1.977235e+005
3.412586e+002, 1.978386e+005
3.413104e+002, 1.979523e+005
3.413621e+002, 1.975246e+005
3.414138e+002, 1.975971e+005
3.414655e+002, 1.977032e+005
3.415173e+002, 1.972544e+005
3.415690e+002, 1.971723e+005
3.416207e+002, 1.967620e+005
3.416724e+002, 1.964568e+005
3.417242e+002, 1.965569e+005
3.417759e+002, 1.969686e+005
3.418276e+002, 1.967529e+005
3.418793e+002, 1.970440e+005
3.419310e+002, 1.967658e+005
3.419828e+002, 1.963293e+005
3.420345e+002, 1.961148e+005
3.420862e+002, 1.959824e+005
3.421379e+002, 1.955713e+005
3.421897e+002, 1.956544e+005
3.422414e+002, 1.958994e+005
3.422931e+002, 1.959309e+005
3.423448e+002, 1.956732e+005
3.423965e+002, 1.955244e+005
3.424483e+002, 1.956665e+005
3.425000e+002, 1.962330e+005
3.425517e+002, 1.966373e+005
3.426035e+002, 1.962315e+005
3.426552e+002, 1.953897e+005
3.427069e+002, 1.950125e+005
3.427586e+002, 1.948819e+005
3.428104e+002, 1.948584e+005
3.428621e+002, 1.948903e+005
3.429138e+002, 1.945039e+005
3.429655e+002, 1.943624e+005
3.430173e+002, 1.940723e+005
3.430690e+002, 1.937804e+005
3.431207e+002, 1.937514e+005
3.431724e+002, 1.936603e+005
3.432242e+002, 1.930191e+005
3.432759e+002, 1.931111e+005
3.433276e+002, 1.933086e+005
3.433793e+002, 1.931263e+005
3.434310e+002, 1.932496e+005
3.434828e+002, 1.933828e+005
3.435345e+002, 1.929085e+005
3.435862e+002, 1.926126e+005
3.436379e+002, 1.925295e+005
3.436897e+002, 1.923898e+005
3.437414e+002, 1.922498e+005
3.437931e+002, 1.927660e+005
3.438448e+002, 1.924778e+005
3.438965e+002, 1.923961e+005
3.439483e+002, 1.922788e+005
3.440000e+002, 1.916211e+005
3.440517e+002, 1.916604e+005
3.441035e+002, 1.917217e+005
3.441552e+002, 1.914098e+005
3.442069e+002, 1.911474e+005
3.442586e+002, 1.906007e+005
3.443104e+002, 1.903685e+005
3.443621e+002, 1.903587e+005
3.444138e+002, 1.902925e+005
3.444655e+002, 1.900630e+005
3.445173e+002, 1.900571e+005
3.445690e+002, 1.900772e+005
3.446207e+002, 1.899700e+005
3.446724e+002, 1.898689e+005
3.447242e+002, 1.900704e+005
3.447759e+002, 1.901851e+005
3.448276e+002, 1.901250e+005
3.448793e+002, 1.894618e+005
3.449310e+002, 1.896256e+005
3.449828e+002, 1.902091e+005
3.450345e+002, 1.903920e+005
3.450862e+002, 1.901320e+005
3.451379e+002, 1.898297e+005
3.451897e+002, 1.900630e+005
3.452414e+002, 1.898343e+005
3.452931e+002, 1.894194e+005
3.453448e+002, 1.889625e+005
3.453965e+002, 1.890805e+005
3.454483e+002, 1.891674e+005
3.455000e+002, 1.887851e+005
3.455517e+002, 1.886759e+005
3.456035e+002, 1.886684e+005
3.456552e+002, 1.887049e+005
3.457069e+002, 1.881326e+005
3.457586e+002, 1.878433e+005
3.458104e+002, 1.877282e+005
3.458621e+002, 1.873713e+005
3.459138e+002, 1.876360e+005
3.459655e+002, 1.876260e+005
3.460173e+002, 1.877149e+005
3.460690e+002, 1.876657e+005
3.461207e+002, 1.876095e+005
3.461724e+002, 1.874887e+005
3.462242e+002, 1.874265e+005
3.462759e+002, 1.875631e+005
3.463276e+002, 1.875475e+005
3.463793e+002, 1.871632e+005
3.464310e+002, 1.863514e+005
3.464828e+002, 1.857745e+005
3.465345e+002, 1.860139e+005
3.465862e+002, 1.856800e+005
3.466379e+002, 1.854633e+005
3.466897e+002, 1.856697e+005
3.467414e+002, 1.860546e+005
3.467931e+002, 1.859542e+005
3.468448e+002, 1.860358e+005
3.468965e+002, 1.859167e+005
3.469483e+002, 1.862048e+005
3.470000e+002, 1.859708e+005
3.470517e+002, 1.853347e+005
3.471035e+002, 1.855960e+005
3.471552e+002, 1.857713e+005
3.472069e+002, 1.862557e+005
3.472586e+002, 1.858168e+005
3.473104e+002, 1.854570e+005
3.473621e+002, 1.854093e+005
3.474138e+002, 1.851483e+005
3.474655e+002, 1.853582e+005
3.475173e+002, 1.851784e+005
3.475690e+002, 1.850418e+005
3.476207e+002, 1.852128e+005
3.476724e+002, 1.851621e+005
3.477242e+002, 1.851568e+005
3.477759e+002, 1.854897e+005
3.478276e+002, 1.850656e+005
3.478793e+002, 1.846666e+005
3.479310e+002, 1.845721e+005
3.479828e+002, 1.847251e+005
3.480345e+002, 1.843832e+005
3.480862e+002, 1.840944e+005
3.481379e+002, 1.840758e+005
3.481897e+002, 1.836965e+005
3.482414e+002, 1.839782e+005
3.482931e+002, 1.838209e+005
3.483448e+002, 1.839645e+005
3.483965e+002, 1.837648e+005
3.484483e+002, 1.835611e+005
3.485000e+002, 1.836044e+005
3.485517e+002, 1.835539e+005
3.486035e+002, 1.833116e+005
3.486552e+002, 1.829436e+005
3.487069e+002, 1.832967e+005
3.487586e+002, 1.832959e+005
3.488104e+002, 1.827590e+005
3.488621e+002, 1.827176e+005
3.489138e+002, 1.826158e+005
3.489655e+002, 1.826624e+005
3.490173e+002, 1.826080e+005
3.490690e+002, 1.822866e+005
3.491207e+002, 1.819439e+005
3.491724e+002, 1.821995e+005
3.492242e+002, 1.822090e+005
3.492759e+002, 1.820942e+005
3.493276e+002, 1.820026e+005
3.493793e+002, 1.822550e+005
3.494310e+002, 1.823691e+005
3.494828e+002, 1.819489e+005
3.495345e+002, 1.816517e+005
3.495862e+002, 1.818216e+005
3.496379e+002, 1.818033e+005
3.496897e+002, 1.819374e+005
3.497414e+002, 1.816156e+005
3.497931e+002, 1.814395e+005
3.498448e+002, 1.816768e+005
3.498965e+002, 1.814530e+005
3.499483e+002, 1.809548e+005
3.500000e+002, 1.805305e+005
3.500517e+002, 1.805064e+005
3.501035e+002, 1.811994e+005
3.501552e+002, 1.812963e+005
3.502069e+002, 1.808811e+005
3.502586e+002, 1.803773e+005
3.503104e+002, 1.807278e+005
3.503621e+002, 1.805822e+005
3.504138e+002, 1.806369e+005
3.504655e+002, 1.807709e+005
3.505173e+002, 1.805810e+005
3.505690e+002, 1.803523e+005
3.506207e+002, 1.800932e+005
3.506724e+002, 1.801826e+005
3.507242e+002, 1.799065e+005
3.507759e+002, 1.800833e+005
3.508276e+002, 1.802936e+005
3.508793e+002, 1.802815e+005
3.509310e+002, 1.797445e+005
3.509828e+002, 1.797035e+005
3.510345e+002, 1.795774e+005
3.510862e+002, 1.797735e+005
3.511379e+002, 1.797884e+005
3.511897e+002, 1.802211e+005
3.512414e+002, 1.800216e+005
3.512931e+002, 1.799673e+005
3.513448e+002, 1.803125e+005
3.513965e+002, 1.801215e+005
3.514483e+002, 1.797935e+005
3.515000e+002, 1.798667e+005
3.515517e+002, 1.798258e+005
3.516035e+002, 1.797638e+005
3.516552e+002, 1.800116e+005
3.517069e+002, 1.795800e+005
3.517586e+002, 1.791188e+005
3.518104e+002, 1.795524e+005
3.518621e+002, 1.796421e+005
3.519138e+002, 1.790417e+005
3.519655e+002, 1.789932e+005
3.520173e+002, 1.789294e+005
3.520690e+002, 1.790263e+005
3.521207e+002, 1.793723e+005
3.521724e+002, 1.793329e+005
3.522242e+002, 1.792315e+005
3.522759e+002, 1.793771e+005
3.523276e+002, 1.795360e+005
3.523793e+002, 1.794546e+005
3.524310e+002, 1.793908e+005
3.524828e+002, 1.790441e+005
3.525345e+002, 1.789671e+005
3.525862e+002, 1.782274e+005
3.526379e+002, 1.780779e+005
3.526897e+002, 1.782037e+005
3.527414e+002, 1.780843e+005
3.527931e+002, 1.781612e+005
3.528448e+002, 1.779224e+005
3.528965e+002, 1.779780e+005
3.529483e+002, 1.779528e+005
3.530000e+002, 1.775361e+005
3.530517e+002, 1.775749e+005
3.531035e+002, 1.772312e+005
3.531552e+002, 1.769053e+005
3.532069e+002, 1.768753e+005
3.532586e+002, 1.770063e+005
3.533104e+002, 1.770679e+005
3.533621e+002, 1.767565e+005
3.534138e+002, 1.765284e+005
3.534655e+002, 1.763572e+005
3.535173e+002, 1.761585e+005
3.535690e+002, 1.760649e+005
3.536207e+002, 1.757587e+005
3.536724e+002, 1.756010e+005
3.537242e+002, 1.755544e+005
3.537759e+002, 1.757819e+005
3.538276e+002, 1.758593e+005
3.538793e+002, 1.754904e+005
3.539310e+002, 1.751043e+005
3.539828e+002, 1.750949e+005
3.540345e+002, 1.755174e+005
3.540862e+002, 1.752457e+005
3.541379e+002, 1.754923e+005
3.541897e+002, 1.758087e+005
3.542414e+002, 1.754591e+005
3.542931e+002, 1.750461e+005
3.543448e+002, 1.751460e+005
3.543965e+002, 1.746814e+005
3.544483e+002, 1.745087e+005
3.545000e+002, 1.744231e+005
3.545517e+002, 1.744928e+005
3.546035e+002, 1.751790e+005
3.546552e+002, 1.754506e+005
3.547069e+002, 1.754321e+005
3.547586e+002, 1.751353e+005
3.548104e+002, 1.748873e+005
3.548621e+002, 1.749271e+005
3.549138e+002, 1.746945e+005
3.549655e+002, 1.748151e+005
3.550173e+002, 1.747607e+005
3.550690e+002, 1.746059e+005
3.551207e+002, 1.744810e+005
3.551724e+002, 1.743347e+005
3.552242e+002, 1.746954e+005
3.552759e+002, 1.747483e+005
3.553276e+002, 1.745449e+005
3.553793e+002, 1.754260e+005
3.554310e+002, 1.755054e+005
3.554828e+002, 1.751731e+005
3.555345e+002, 1.749883e+005
3.555862e+002, 1.747944e+005
3.556379e+002, 1.741578e+005
3.556897e+002, 1.741271e+005
3.557414e+002, 1.740845e+005
3.557931e+002, 1.742764e+005
3.558448e+002, 1.745927e+005
3.558965e+002, 1.746720e+005
3.559483e+002, 1.743482e+005
3.560000e+002, 1.741205e+005
3.560517e+002, 1.742035e+005
3.561035e+002, 1.740613e+005
3.561552e+002, 1.742678e+005
3.562069e+002, 1.744105e+005
3.562586e+002, 1.740312e+005
3.563104e+002, 1.735146e+005
3.563621e+002, 1.734361e+005
3.564138e+002, 1.733820e+005
3.564655e+002, 1.731499e+005
3.565173e+002, 1.730268e+005
3.565690e+002, 1.727529e+005
3.566207e+002, 1.728972e+005
3.566724e+002, 1.728017e+005
3.567242e+002, 1.720510e+005
3.567759e+002, 1.722387e+005
3.568276e+002, 1.723393e+005
3.568793e+002, 1.721564e+005
3.569310e+002, 1.715745e+005
3.569828e+002, 1.716047e+005
3.570345e+002, 1.714112e+005
3.570862e+002, 1.711058e+005
3.571379e+002, 1.708056e+005
3.571897e+002, 1.709234e+005
3.572414e+002, 1.709362e+005
3.572931e+002, 1.711689e+005
3.573448e+002, 1.712272e+005
3.573965e+002, 1.713194e+005
3.574483e+002, 1.708590e+005
3.575000e+002, 1.705754e+005
3.575517e+002, 1.704933e+005
3.576035e+002, 1.704283e+005
3.576552e+002, 1.701827e+005
3.577069e+002, 1.703356e+005
3.577586e+002, 1.700958e+005
3.578104e+002, 1.701237e+005
3.578621e+002, 1.702935e+005
3.579138e+002, 1.702071e+005
3.579655e+002, 1.698517e+005
3.580173e+002, 1.701450e+005
3.580690e+002, 1.700846e+005
3.581207e+002, 1.700126e+005
3.581724e+002, 1.694733e+005
3.582242e+002, 1.696526e+005
3.582759e+002, 1.694901e+005
3.583276e+002, 1.695601e+005
3.583793e+002, 1.700038e+005
3.584310e+002, 1.698408e+005
3.584828e+002, 1.693846e+005
3.585345e+002, 1.689041e+005
3.585862e+002, 1.685865e+005
3.586379e+002, 1.687499e+005
3.586897e+002, 1.689518e+005
3.587414e+002, 1.684748e+005
3.587931e+002, 1.682813e+005
3.588448e+002, 1.683383e+005
3.588965e+002, 1.681896e+005
3.589483e+002, 1.682576e+005
3.590000e+002, 1.681521e+005
3.590517e+002, 1.685451e+005
3.591035e+002, 1.685776e+005
3.591552e+002, 1.683253e+005
3.592069e+002, 1.684068e+005
3.592586e+002, 1.686288e+005
3.593104e+002, 1.682233e+005
3.593621e+002, 1.673599e+005
3.594138e+002, 1.674197e+005
3.594655e+002, 1.676091e+005
3.595173e+002, 1.676958e+005
3.595690e+002, 1.676314e+005
3.596207e+002, 1.677376e+005
3.596724e+002, 1.673676e+005
3.597242e+002, 1.669385e+005
3.597759e+002, 1.673111e+005
3.598276e+002, 1.673701e+005
3.598793e+002, 1.673355e+005
3.599310e+002, 1.674390e+005
3.599828e+002, 1.677401e+005
3.600345e+002, 1.673932e+005
3.600862e+002, 1.672546e+005
3.601379e+002, 1.673181e+005
3.601897e+002, 1.672988e+005
3.602414e+002, 1.669663e+005
3.602931e+002, 1.671146e+005
3.603448e+002, 1.674020e+005
3.603965e+002, 1.674430e+005
3.604483e+002, 1.672224e+005
3.605000e+002, 1.666728e+005
3.605517e+002, 1.660695e+005
3.606035e+002, 1.660547e+005
3.606552e+002, 1.664292e+005
3.607069e+002, 1.666150e+005
3.607586e+002, 1.664439e+005
3.608104e+002, 1.663640e+005
3.608621e+002, 1.658914e+005
3.609138e+002, 1.654307e+005
3.609655e+002, 1.651536e+005
3.610173e+002, 1.654425e+005
3.610690e+002, 1.657465e+005
3.611207e+002, 1.661637e+005
3.611724e+002, 1.666621e+005
3.612242e+002, 1.659696e+005
3.612759e+002, 1.656068e+005
3.613276e+002, 1.652231e+005
3.613793e+002, 1.647898e+005
3.614310e+002, 1.648205e+005
3.614828e+002, 1.649927e+005
3.615345e+002, 1.651522e+005
3.615862e+002, 1.654559e+005
3.616379e+002, 1.654360e+005
3.616897e+002, 1.653104e+005
3.617414e+002, 1.649247e+005
3.617931e+002, 1.645497e+005
3.618448e+002, 1.646687e+005
3.618965e+002, 1.644112e+005
3.619483e+002, 1.643658e+005
3.620000e+002, 1.642256e+005
3.620517e+002, 1.646754e+005
3.621035e+002, 1.647159e+005
3.621552e+002, 1.645145e+005
3.622069e+002, 1.648256e+005
3.622586e+002, 1.646682e+005
3.623104e+002, 1.645635e+005
3.623621e+002, 1.642811e+005
3.624138e+002, 1.639408e+005
3.624655e+002, 1.635690e+005
3.625173e+002, 1.632489e+005
3.625690e+002, 1.629761e+005
3.626207e+002, 1.633808e+005
3.626724e+002, 1.639388e+005
3.627242e+002, 1.630623e+005
3.627759e+002, 1.628328e+005
3.628276e+002, 1.635420e+005
3.628793e+002, 1.637277e+005
3.629310e+002, 1.632605e+005
3.629828e+002, 1.638549e+005
3.630345e+002, 1.639123e+005
3.630862e+002, 1.634379e+005
3.631379e+002, 1.633943e+005
3.631897e+002, 1.634979e+005
3.632414e+002, 1.633970e+005
3.632931e+002, 1.639391e+005
3.633448e+002, 1.638904e+005
3.633965e+002, 1.631901e+005
3.634483e+002, 1.628991e+005
3.635000e+002, 1.627861e+005
3.635517e+002, 1.627121e+005
3.636035e+002, 1.629453e+005
3.636552e+002, 1.629405e+005
3.637069e+002, 1.628490e+005
3.637586e+002, 1.624708e+005
3.638104e+002, 1.626448e+005
3.638621e+002, 1.627200e+005
3.639138e+002, 1.627126e+005
3.639655e+002, 1.626224e+005
3.640173e+002, 1.625668e+005
3.640690e+002, 1.625067e+005
3.641207e+002, 1.622996e+005
3.641724e+002, 1.622662e+005
3.642242e+002, 1.623355e+005
3.642759e+002, 1.621133e+005
3.643276e+002, 1.613869e+005
3.643793e+002, 1.612638e+005
3.644310e+002, 1.614189e+005
3.644828e+002, 1.614444e+005
3.645345e+002, 1.612131e+005
3.645862e+002, 1.612240e+005
3.646379e+002, 1.611168e+005
3.646897e+002, 1.611372e+005
3.647414e+002, 1.613064e+005
3.647931e+002, 1.611430e+005
3.648448e+002, 1.611317e+005
3.648965e+002, 1.613545e+005
3.649483e+002, 1.612990e+005
3.650000e+002, 1.613865e+005
3.650517e+002, 1.612619e+005
3.651035e+002, 1.608593e+005
3.651552e+002, 1.608542e+005
3.652069e+002, 1.606053e+005
3.652586e+002, 1.602238e+005
3.653104e+002, 1.602890e+005
3.653621e+002, 1.602416e+005
3.654138e+002, 1.604544e+005
3.654655e+002, 1.606870e+005
3.655173e+002, 1.603622e+005
3.655690e+002, 1.604702e+005
3.656207e+002, 1.603435e+005
3.656724e+002, 1.600486e+005
3.657242e+002, 1.601484e+005
3.657759e+002, 1.604425e+005
3.658276e+002, 1.606838e+005
3.658793e+002, 1.601137e+005
3.659310e+002, 1.601287e+005
3.659828e+002, 1.600432e+005
3.660345e+002, 1.596667e+005
3.660862e+002, 1.597606e+005
3.661379e+002, 1.599219e+005
3.661897e+002, 1.598340e+005
3.662414e+002, 1.594867e+005
3.662931e+002, 1.591976e+005
3.663448e+002, 1.591281e+005
3.663965e+002, 1.588953e+005
3.664483e+002, 1.585881e+005
3.665000e+002, 1.586386e+005
3.665517e+002, 1.590202e+005
3.666035e+002, 1.585744e+005
3.666552e+002, 1.583634e+005
3.667069e+002, 1.580293e+005
3.667586e+002, 1.583371e+005
3.668104e+002, 1.584125e+005
3.668621e+002, 1.580119e+005
3.669138e+002, 1.578488e+005
3.669655e+002, 1.574291e+005
3.670173e+002, 1.578769e+005
3.670690e+002, 1.579921e+005
3.671207e+002, 1.581301e+005
3.671724e+002, 1.580766e+005
3.672242e+002, 1.584003e+005
3.672759e+002, 1.581968e+005
3.673276e+002, 1.580945e+005
3.673793e+002, 1.579238e+005
3.674310e+002, 1.579610e+005
3.674828e+002, 1.580832e+005
3.675345e+002, 1.580214e+005
3.675862e+002, 1.579082e+005
3.676379e+002, 1.578290e+005
3.676897e+002, 1.576305e+005
3.677414e+002, 1.574870e+005
3.677931e+002, 1.579486e+005
3.678448e+002, 1.576994e+005
3.678965e+002, 1.576318e+005
3.679483e+002, 1.579178e+005
3.680000e+002, 1.575712e+005
3.680517e+002, 1.574204e+005
3.681035e+002, 1.573224e+005
3.681552e+002, 1.574221e+005
3.682069e+002, 1.571869e+005
3.682586e+002, 1.574094e+005
3.683104e+002, 1.571299e+005
3.683621e+002, 1.568469e+005
3.684138e+002, 1.570367e+005
3.684655e+002, 1.570155e+005
3.685173e+002, 1.570755e+005
3.685690e+002, 1.567041e+005
3.686207e+002, 1.559258e+005
3.686724e+002, 1.554875e+005
3.687242e+002, 1.559030e+005
3.687759e+002, 1.563157e+005
3.688276e+002, 1.560934e+005
3.688793e+002, 1.559983e+005
3.689310e+002, 1.557581e+005
3.689828e+002, 1.556697e+005
3.690345e+002, 1.558371e+005
3.690862e+002, 1.556655e+005
3.691379e+002, 1.559082e+005
3.691897e+002, 1.559570e+005
3.692414e+002, 1.558752e+005
3.692931e+002, 1.555271e+005
3.693448e+002, 1.553516e+005
3.693965e+002, 1.556432e+005
3.694483e+002, 1.554331e+005
3.695000e+002, 1.551710e+005
3.695517e+002, 1.544036e+005
3.696035e+002, 1.543307e+005
3.696552e+002, 1.546786e+005
3.697069e+002, 1.549116e+005
3.697586e+002, 1.549586e+005
3.698104e+002, 1.547405e+005
3.698621e+002, 1.544308e+005
3.699138e+002, 1.541523e+005
3.699655e+002, 1.539840e+005
3.700173e+002, 1.538632e+005
3.700690e+002, 1.536737e+005
3.701207e+002, 1.537321e+005
3.701724e+002, 1.537753e+005
3.702242e+002, 1.539905e+005
3.702759e+002, 1.544874e+005
3.703276e+002, 1.547083e+005
3.703793e+002, 1.545792e+005
3.704310e+002, 1.543278e+005
3.704828e+002, 1.542730e+005
3.705345e+002, 1.536650e+005
3.705862e+002, 1.534013e+005
3.706379e+002, 1.535490e+005
3.706897e+002, 1.531685e+005
3.707414e+002, 1.533322e+005
3.707931e+002, 1.533621e+005
3.708448e+002, 1.533368e+005
3.708965e+002, 1.530248e+005
3.709483e+002, 1.530612e+005
3.710000e+002, 1.530419e+005
3.710517e+002, 1.530880e+005
3.711035e+002, 1.527099e+005
3.711552e+002, 1.524472e+005
3.712069e+002, 1.524043e+005
3.712586e+002, 1.524155e+005
3.713104e+002, 1.523787e+005
3.713621e+002, 1.523100e+005
3.714138e+002, 1.522597e+005
3.714655e+002, 1.524870e+005
3.715173e+002, 1.523914e+005
3.715690e+002, 1.524138e+005
3.716207e+002, 1.521789e+005
3.716724e+002, 1.521254e+005
3.717242e+002, 1.519417e+005
3.717759e+002, 1.518498e+005
3.718276e+002, 1.520841e+005
3.718793e+002, 1.522113e+005
3.719310e+002, 1.520812e+005
3.719828e+002, 1.521014e+005
3.720345e+002, 1.518911e+005
3.720862e+002, 1.516745e+005
3.721379e+002, 1.513711e+005
3.721897e+002, 1.510507e+005
3.722414e+002, 1.509424e+005
3.722931e+002, 1.514878e+005
3.723448e+002, 1.514077e+005
3.723965e+002, 1.508355e+005
3.724483e+002, 1.510509e+005
3.725000e+002, 1.512223e+005
3.725517e+002, 1.511841e+005
3.726035e+002, 1.511338e+005
3.726552e+002, 1.510263e+005
3.727069e+002, 1.509343e+005
3.727586e+002, 1.510517e+005
3.728104e+002, 1.512060e+005
3.728621e+002, 1.509501e+005
3.729138e+002, 1.505852e+005
3.729655e+002, 1.504628e+005
3.730173e+002, 1.500504e+005
3.730690e+002, 1.497811e+005
3.731207e+002, 1.499771e+005
3.731724e+002, 1.500149e+005
3.732242e+002, 1.499690e+005
3.732759e+002, 1.497660e+005
3.733276e+002, 1.496356e+005
3.733793e+002, 1.494282e+005
3.734310e+002, 1.492765e+005
3.734828e+002, 1.492138e+005
3.735345e+002, 1.493472e+005
3.735862e+002, 1.493445e+005
3.736379e+002, 1.490868e+005
3.736897e+002, 1.492271e+005
3.737414e+002, 1.493618e+005
3.737931e+002, 1.491385e+005
3.738448e+002, 1.491539e+005
3.738965e+002, 1.491125e+005
3.739483e+002, 1.488032e+005
3.740000e+002, 1.492086e+005
3.740517e+002, 1.492666e+005
3.741035e+002, 1.490341e+005
3.741552e+002, 1.488397e+005
3.742069e+002, 1.490993e+005
3.742586e+002, 1.491438e+005
3.743104e+002, 1.491839e+005
3.743621e+002, 1.488277e+005
3.744138e+002, 1.486372e+005
3.744655e+002, 1.484119e+005
3.745173e+002, 1.484384e+005
3.745690e+002, 1.482267e+005
3.746207e+002, 1.483287e+005
3.746724e+002, 1.481076e+005
3.747242e+002, 1.480487e+005
3.747759e+002, 1.479781e+005
3.748276e+002, 1.476343e+005
3.748793e+002, 1.475932e+005
3.749310e+002, 1.479187e+005
3.749828e+002, 1.476373e+005
3.750345e+002, 1.474342e+005
3.750862e+002, 1.473967e+005
3.751379e+002, 1.476703e+005
3.751897e+002, 1.470948e+005
3.752414e+002, 1.470399e+005
3.752931e+002, 1.471229e+005
3.753448e+002, 1.473557e+005
3.753965e+002, 1.472789e+005
3.754483e+002, 1.472805e+005
3.755000e+002, 1.472554e+005
3.755517e+002, 1.472546e+005
3.756035e+002, 1.470393e+005
3.756552e+002, 1.474081e+005
3.757069e+002, 1.474702e+005
3.757586e+002, 1.469241e+005
3.758104e+002, 1.467517e+005
3.758621e+002, 1.465979e+005
3.759138e+002, 1.463630e+005
3.759655e+002, 1.461630e+005
3.760173e+002, 1.459677e+005
3.760690e+002, 1.460142e+005
3.761207e+002, 1.459505e+005
3.761724e+002, 1.459070e+005
3.762242e+002, 1.458770e+005
3.762759e+002, 1.458532e+005
3.763276e+002, 1.462656e+005
3.763793e+002, 1.466512e+005
3.764310e+002, 1.462359e+005
3.764828e+002, 1.459553e+005
3.765345e+002, 1.458013e+005
3.765862e+002, 1.454211e+005
3.766379e+002, 1.455328e+005
3.766897e+002, 1.455222e+005
3.767414e+002, 1.451590e+005
3.767931e+002, 1.448607e+005
3.768448e+002, 1.450755e+005
3.768965e+002, 1.453268e+005
3.769483e+002, 1.452587e+005
3.770000e+002, 1.448985e+005
3.770517e+002, 1.449413e+005
3.771035e+002, 1.448095e+005
3.771552e+002, 1.449730e+005
3.772069e+002, 1.448617e+005
3.772586e+002, 1.444722e+005
3.773104e+002, 1.441409e+005
3.773621e+002, 1.440389e+005
3.774138e+002, 1.440044e+005
3.774655e+002, 1.440528e+005
3.775173e+002, 1.438248e+005
3.775690e+002, 1.436569e+005
3.776207e+002, 1.441679e+005
3.776724e+002, 1.442208e+005
3.777242e+002, 1.439439e+005
3.777759e+002, 1.440787e+005
3.778276e+002, 1.439078e+005
3.778793e+002, 1.443435e+005
3.779310e+002, 1.445290e+005
3.779828e+002, 1.443720e+005
3.780345e+002, 1.439638e+005
3.780862e+002, 1.433404e+005
3.781379e+002, 1.431774e+005
3.781897e+002, 1.430008e+005
3.782414e+002, 1.429655e+005
3.782931e+002, 1.430008e+005
3.783448e+002, 1.428205e+005
3.783965e+002, 1.425198e+005
3.784483e+002, 1.424940e+005
3.785000e+002, 1.425067e+005
3.785517e+002, 1.425894e+005
3.786035e+002, 1.426778e+005
3.786552e+002, 1.428059e+005
3.787069e+002, 1.427178e+005
3.787586e+002, 1.426338e+005
3.788104e+002, 1.425759e+005
3.788621e+002, 1.427160e+005
3.789138e+002, 1.426862e+005
3.789655e+002, 1.424584e+005
3.790173e+002, 1.424210e+005
3.790690e+002, 1.425094e+005
3.791207e+002, 1.423378e+005
3.791724e+002, 1.422735e+005
3.792242e+002, 1.420405e+005
3.792759e+002, 1.418312e+005
3.793276e+002, 1.417119e+005
3.793793e+002, 1.411458e+005
3.794310e+002, 1.412323e+005
3.794828e+002, 1.414937e+005
3.795345e+002, 1.418540e+005
3.795862e+002, 1.419604e+005
3.796379e+002, 1.419421e+005
3.796897e+002, 1.415452e+005
3.797414e+002, 1.416359e+005
3.797931e+002, 1.416704e+005
3.798448e+002, 1.415955e+005
3.798965e+002, 1.414695e+005
3.799483e+002, 1.407670e+005
3.800000e+002, 1.404091e+005
3.800517e+002, 1.407189e+005
3.801035e+002, 1.410107e+005
3.801552e+002, 1.408351e+005
3.802069e+002, 1.404358e+005
3.802586e+002, 1.402909e+005
3.803104e+002, 1.404678e+005
3.803621e+002, 1.407308e+005
3.804138e+002, 1.408781e+005
3.804655e+002, 1.403675e+005
3.805173e+002, 1.400128e+005
3.805690e+002, 1.396067e+005
3.806207e+002, 1.394503e+005
3.806724e+002, 1.390235e+005
3.807242e+002, 1.389175e+005
3.807759e+002, 1.390637e+005
3.808276e+002, 1.392437e+005
3.808793e+002, 1.394991e+005
3.809310e+002, 1.392191e+005
3.809828e+002, 1.392054e+005
3.810345e+002, 1.396240e+005
3.810862e+002, 1.396362e+005
3.811379e+002, 1.393813e+005
3.811897e+002, 1.395114e+005
3.812414e+002, 1.394542e+005
3.812931e+002, 1.394617e+005
3.813448e+002, 1.393452e+005
3.813965e+002, 1.393388e+005
3.814483e+002, 1.390999e+005
3.815000e+002, 1.388946e+005
3.815517e+002, 1.386556e+005
3.816035e+002, 1.387544e+005
3.816552e+002, 1.388554e+005
3.817069e+002, 1.388746e+005
3.817586e+002, 1.386340e+005
3.818104e+002, 1.383218e+005
3.818621e+002, 1.383352e+005
3.819138e+002, 1.385830e+005
3.819655e+002, 1.386876e+005
3.820173e+002, 1.382678e+005
3.820690e+002, 1.382655e+005
3.821207e+002, 1.383965e+005
3.821724e+002, 1.383700e+005
3.822242e+002, 1.383629e+005
3.822759e+002, 1.382221e+005
3.823276e+002, 1.379039e+005
3.823793e+002, 1.379066e+005
3.824310e+002, 1.375441e+005
3.824828e+002, 1.371990e+005
3.825345e+002, 1.374023e+005
3.825862e+002, 1.375475e+005
3.826379e+002, 1.372278e+005
3.826897e+002, 1.370154e+005
3.827414e+002, 1.366923e+005
3.827931e+002, 1.364879e+005
3.828448e+002, 1.365093e+005
3.828965e+002, 1.367006e+005
3.829483e+002, 1.364380e+005
3.830000e+002, 1.367191e+005
3.830518e+002, 1.370090e+005
3.831035e+002, 1.368565e+005
3.831552e+002, 1.366563e+005
3.832069e+002, 1.362246e+005
3.832586e+002, 1.362908e+005
3.833104e+002, 1.365339e+005
3.833621e+002, 1.363915e+005
3.834138e+002, 1.364165e+005
3.834655e+002, 1.362863e+005
3.835173e+002, 1.361148e+005
3.835690e+002, 1.358899e+005
3.836207e+002, 1.357937e+005
3.836724e+002, 1.362185e+005
3.837242e+002, 1.361623e+005
3.837759e+002, 1.360934e+005
3.838276e+002, 1.360344e+005
3.838793e+002, 1.358488e+005
3.839310e+002, 1.355314e+005
3.839828e+002, 1.354366e+005
3.840345e+002, 1.356647e+005
3.840862e+002, 1.361557e+005
3.841379e+002, 1.362881e+005
3.841897e+002, 1.356250e+005
3.842414e+002, 1.353938e+005
3.842931e+002, 1.352995e+005
3.843448e+002, 1.351605e+005
3.843965e+002, 1.348985e+005
3.844483e+002, 1.346060e+005
3.845000e+002, 1.346203e+005
3.845518e+002, 1.348110e+005
3.846035e+002, 1.347760e+005
3.846552e+002, 1.347009e+005
3.847069e+002, 1.349372e+005
3.847586e+002, 1.348494e+005
3.848104e+002, 1.348855e+005
3.848621e+002, 1.346626e+005
3.849138e+002, 1.341720e+005
3.849655e+002, 1.339183e+005
3.850173e+002, 1.338862e+005
3.850690e+002, 1.337928e+005
3.851207e+002, 1.337808e+005
3.851724e+002, 1.343262e+005
3.852242e+002, 1.344561e+005
3.852759e+002, 1.342467e+005
3.853276e+002, 1.344302e+005
3.853793e+002, 1.343517e+005
3.854310e+002, 1.340548e+005
3.854828e+002, 1.337985e+005
3.855345e+002, 1.337571e+005
3.855862e+002, 1.337984e+005
3.856379e+002, 1.338676e+005
3.856897e+002, 1.336341e+005
3.857414e+002, 1.333769e+005
3.857931e+002, 1.337871e+005
3.858448e+002, 1.339686e+005
3.858965e+002, 1.334525e+005
3.859483e+002, 1.331021e+005
3.860000e+002, 1.330562e+005
3.860518e+002, 1.330008e+005
3.861035e+002, 1.335632e+005
3.861552e+002, 1.334941e+005
3.862069e+002, 1.333173e+005
3.862586e+002, 1.334064e+005
3.863104e+002, 1.331041e+005
3.863621e+002, 1.327805e+005
3.864138e+002, 1.329289e+005
3.864655e+002, 1.330684e+005
3.865173e+002, 1.327083e+005
3.865690e+002, 1.323244e+005
3.866207e+002, 1.321096e+005
3.866724e+002, 1.324231e+005
3.867242e+002, 1.322462e+005
3.867759e+002, 1.322270e+005
3.868276e+002, 1.324096e+005
3.868793e+002, 1.326375e+005
3.869310e+002, 1.325268e+005
3.869828e+002, 1.322913e+005
3.870345e+002, 1.319792e+005
3.870862e+002, 1.323290e+005
3.871379e+002, 1.324567e+005
3.871897e+002, 1.323295e+005
3.872414e+002, 1.320422e+005
3.872931e+002, 1.316826e+005
3.873448e+002, 1.317953e+005
3.873965e+002, 1.315776e+005
3.874483e+002, 1.311354e+005
3.875000e+002, 1.310505e+005
3.875518e+002, 1.315328e+005
3.876035e+002, 1.313747e+005
3.876552e+002, 1.314245e+005
3.877069e+002, 1.315634e+005
3.877586e+002, 1.310160e+005
3.878104e+002, 1.309350e+005
3.878621e+002, 1.310818e+005
3.879138e+002, 1.307747e+005
3.879655e+002, 1.307121e+005
3.880173e+002, 1.306383e+005
3.880690e+002, 1.307268e+005
3.881207e+002, 1.306351e+005
3.881724e+002, 1.310323e+005
3.882242e+002, 1.309641e+005
3.882759e+002, 1.308047e+005
3.883276e+002, 1.306356e+005
3.883793e+002, 1.306487e+005
3.884310e+002, 1.307131e+005
3.884828e+002, 1.304277e+005
3.885345e+002, 1.303645e+005
3.885862e+002, 1.307586e+005
3.886379e+002, 1.304106e+005
3.886897e+002, 1.297694e+005
3.887414e+002, 1.300060e+005
3.887931e+002, 1.298550e+005
3.888448e+002, 1.296998e+005
3.888965e+002, 1.296188e+005
3.889483e+002, 1.296713e+005
3.890000e+002, 1.295037e+005
3.890518e+002, 1.294353e+005
3.891035e+002, 1.292744e+005
3.891552e+002, 1.296316e+005
3.892069e+002, 1.298329e+005
3.892586e+002, 1.300683e+005
3.893104e+002, 1.296847e+005
3.893621e+002, 1.296588e+005
3.894138e+002, 1.295741e+005
3.894655e+002, 1.294845e+005
3.895173e+002, 1.295246e+005
3.895690e+002, 1.295246e+005
3.896207e+002, 1.295246e+005
3.896724e+002, 1.295246e+005
3.897242e+002, 1.295246e+005
3.897759e+002, 1.295246e+005
3.898276e+002, 1.295246e+005
3.898793e+002, 1.295246e+005
#ENDOFDATA   : End Of Data and File