#FORMAT	     : EMSA/MAS Spectral Data File
#VERSION     : 1.0
#TITLE       : EELS #C# 125x 314eV I5 B1 3x3s
#DATE        : 
#TIME        : 
#OWNER       : Ansgar Donner
#NPOINTS     : 4096
#NCOLUMNS    : 1
#XUNITS      : eV
#YUNITS      : e-
#DATATYPE    : XY
#XPERCHAN    : 5.172414e-002
#OFFSET      : 2.080690e+002
#SIGNALTYPE  : ELS
#BEAMKV      : 200000.000000
#MAGCAM      : 100000.000000
#EMISSION    : 0.000000
#PROBECUR    : 0.000000
#BEAMDIAM    : 0.000000
#SPECTRUM    : Spectral Data Starts Here
2.080690e+002, 9.928090e+004
2.081207e+002, 9.928090e+004
2.081724e+002, 9.928090e+004
2.082241e+002, 9.928090e+004
2.082759e+002, 9.928090e+004
2.083276e+002, 9.928090e+004
2.083793e+002, 9.928090e+004
2.084310e+002, 9.928090e+004
2.084828e+002, 9.928090e+004
2.085345e+002, 9.928090e+004
2.085862e+002, 9.928090e+004
2.086379e+002, 9.929112e+004
2.086897e+002, 9.932754e+004
2.087414e+002, 9.925107e+004
2.087931e+002, 9.891602e+004
2.088448e+002, 9.910251e+004
2.088966e+002, 9.897292e+004
2.089483e+002, 9.879864e+004
2.090000e+002, 9.873172e+004
2.090517e+002, 9.915628e+004
2.091035e+002, 9.924013e+004
2.091552e+002, 9.909567e+004
2.092069e+002, 9.888988e+004
2.092586e+002, 9.904570e+004
2.093103e+002, 9.884638e+004
2.093621e+002, 9.849973e+004
2.094138e+002, 9.832305e+004
2.094655e+002, 9.841304e+004
2.095172e+002, 9.813679e+004
2.095690e+002, 9.799940e+004
2.096207e+002, 9.803335e+004
2.096724e+002, 9.804741e+004
2.097241e+002, 9.768813e+004
2.097759e+002, 9.776223e+004
2.098276e+002, 9.790686e+004
2.098793e+002, 9.790976e+004
2.099310e+002, 9.818367e+004
2.099828e+002, 9.799334e+004
2.100345e+002, 9.765060e+004
2.100862e+002, 9.798025e+004
2.101379e+002, 9.815847e+004
2.101897e+002, 9.779156e+004
2.102414e+002, 9.728948e+004
2.102931e+002, 9.735960e+004
2.103448e+002, 9.723909e+004
2.103966e+002, 9.721753e+004
2.104483e+002, 9.728068e+004
2.105000e+002, 9.724814e+004
2.105517e+002, 9.715615e+004
2.106035e+002, 9.721667e+004
2.106552e+002, 9.751562e+004
2.107069e+002, 9.745455e+004
2.107586e+002, 9.718621e+004
2.108103e+002, 9.689673e+004
2.108621e+002, 9.664722e+004
2.109138e+002, 9.652280e+004
2.109655e+002, 9.636173e+004
2.110172e+002, 9.611455e+004
2.110690e+002, 9.614252e+004
2.111207e+002, 9.610461e+004
2.111724e+002, 9.606051e+004
2.112241e+002, 9.623478e+004
2.112759e+002, 9.620814e+004
2.113276e+002, 9.599370e+004
2.113793e+002, 9.606996e+004
2.114310e+002, 9.600555e+004
2.114828e+002, 9.596625e+004
2.115345e+002, 9.547710e+004
2.115862e+002, 9.533181e+004
2.116379e+002, 9.525927e+004
2.116897e+002, 9.537559e+004
2.117414e+002, 9.563134e+004
2.117931e+002, 9.583164e+004
2.118448e+002, 9.573223e+004
2.118966e+002, 9.555479e+004
2.119483e+002, 9.526788e+004
2.120000e+002, 9.522445e+004
2.120517e+002, 9.506445e+004
2.121035e+002, 9.524707e+004
2.121552e+002, 9.534895e+004
2.122069e+002, 9.529953e+004
2.122586e+002, 9.502294e+004
2.123103e+002, 9.486901e+004
2.123621e+002, 9.460213e+004
2.124138e+002, 9.455221e+004
2.124655e+002, 9.448870e+004
2.125172e+002, 9.457471e+004
2.125690e+002, 9.477107e+004
2.126207e+002, 9.478316e+004
2.126724e+002, 9.466884e+004
2.127241e+002, 9.462127e+004
2.127759e+002, 9.454836e+004
2.128276e+002, 9.446009e+004
2.128793e+002, 9.440366e+004
2.129310e+002, 9.409698e+004
2.129828e+002, 9.392169e+004
2.130345e+002, 9.400825e+004
2.130862e+002, 9.418085e+004
2.131379e+002, 9.391705e+004
2.131897e+002, 9.395973e+004
2.132414e+002, 9.393219e+004
2.132931e+002, 9.369049e+004
2.133448e+002, 9.352593e+004
2.133966e+002, 9.358338e+004
2.134483e+002, 9.327124e+004
2.135000e+002, 9.340259e+004
2.135517e+002, 9.333027e+004
2.136035e+002, 9.331333e+004
2.136552e+002, 9.341224e+004
2.137069e+002, 9.343167e+004
2.137586e+002, 9.322657e+004
2.138103e+002, 9.331138e+004
2.138621e+002, 9.322097e+004
2.139138e+002, 9.293335e+004
2.139655e+002, 9.279494e+004
2.140172e+002, 9.272937e+004
2.140690e+002, 9.271255e+004
2.141207e+002, 9.259906e+004
2.141724e+002, 9.267666e+004
2.142241e+002, 9.253938e+004
2.142759e+002, 9.246042e+004
2.143276e+002, 9.242929e+004
2.143793e+002, 9.282825e+004
2.144310e+002, 9.290541e+004
2.144828e+002, 9.274927e+004
2.145345e+002, 9.243958e+004
2.145862e+002, 9.210013e+004
2.146379e+002, 9.216002e+004
2.146897e+002, 9.232050e+004
2.147414e+002, 9.206815e+004
2.147931e+002, 9.194421e+004
2.148448e+002, 9.205676e+004
2.148966e+002, 9.196509e+004
2.149483e+002, 9.184439e+004
2.150000e+002, 9.168738e+004
2.150517e+002, 9.192494e+004
2.151035e+002, 9.213006e+004
2.151552e+002, 9.206609e+004
2.152069e+002, 9.189340e+004
2.152586e+002, 9.158172e+004
2.153103e+002, 9.131169e+004
2.153621e+002, 9.090334e+004
2.154138e+002, 9.111584e+004
2.154655e+002, 9.121044e+004
2.155172e+002, 9.130370e+004
2.155690e+002, 9.130555e+004
2.156207e+002, 9.121255e+004
2.156724e+002, 9.118679e+004
2.157241e+002, 9.090463e+004
2.157759e+002, 9.088159e+004
2.158276e+002, 9.089069e+004
2.158793e+002, 9.055433e+004
2.159310e+002, 9.049696e+004
2.159828e+002, 9.059209e+004
2.160345e+002, 9.046076e+004
2.160862e+002, 9.019416e+004
2.161379e+002, 8.991195e+004
2.161897e+002, 9.007205e+004
2.162414e+002, 9.001837e+004
2.162931e+002, 9.001740e+004
2.163448e+002, 9.001587e+004
2.163966e+002, 8.977012e+004
2.164483e+002, 9.005895e+004
2.165000e+002, 9.037341e+004
2.165517e+002, 9.007893e+004
2.166035e+002, 8.983668e+004
2.166552e+002, 8.991893e+004
2.167069e+002, 8.996166e+004
2.167586e+002, 8.988312e+004
2.168103e+002, 9.004165e+004
2.168621e+002, 8.971845e+004
2.169138e+002, 8.954445e+004
2.169655e+002, 8.951891e+004
2.170172e+002, 8.942780e+004
2.170690e+002, 8.944127e+004
2.171207e+002, 8.930249e+004
2.171724e+002, 8.910471e+004
2.172241e+002, 8.896982e+004
2.172759e+002, 8.907003e+004
2.173276e+002, 8.915281e+004
2.173793e+002, 8.903120e+004
2.174310e+002, 8.909332e+004
2.174828e+002, 8.884199e+004
2.175345e+002, 8.889687e+004
2.175862e+002, 8.919895e+004
2.176379e+002, 8.893613e+004
2.176897e+002, 8.853319e+004
2.177414e+002, 8.825414e+004
2.177931e+002, 8.842815e+004
2.178448e+002, 8.838050e+004
2.178966e+002, 8.837211e+004
2.179483e+002, 8.822053e+004
2.180000e+002, 8.862003e+004
2.180517e+002, 8.866448e+004
2.181035e+002, 8.799105e+004
2.181552e+002, 8.786121e+004
2.182069e+002, 8.792317e+004
2.182586e+002, 8.789238e+004
2.183103e+002, 8.792320e+004
2.183621e+002, 8.791780e+004
2.184138e+002, 8.751358e+004
2.184655e+002, 8.772243e+004
2.185172e+002, 8.784928e+004
2.185690e+002, 8.770441e+004
2.186207e+002, 8.745156e+004
2.186724e+002, 8.742402e+004
2.187241e+002, 8.738761e+004
2.187759e+002, 8.732841e+004
2.188276e+002, 8.752691e+004
2.188793e+002, 8.755577e+004
2.189310e+002, 8.743076e+004
2.189828e+002, 8.711183e+004
2.190345e+002, 8.688509e+004
2.190862e+002, 8.719445e+004
2.191379e+002, 8.745627e+004
2.191897e+002, 8.712694e+004
2.192414e+002, 8.695149e+004
2.192931e+002, 8.699490e+004
2.193448e+002, 8.648519e+004
2.193966e+002, 8.637923e+004
2.194483e+002, 8.660326e+004
2.195000e+002, 8.668171e+004
2.195517e+002, 8.646110e+004
2.196035e+002, 8.617986e+004
2.196552e+002, 8.631726e+004
2.197069e+002, 8.652345e+004
2.197586e+002, 8.609780e+004
2.198103e+002, 8.603260e+004
2.198621e+002, 8.605608e+004
2.199138e+002, 8.632384e+004
2.199655e+002, 8.632635e+004
2.200172e+002, 8.605984e+004
2.200690e+002, 8.604176e+004
2.201207e+002, 8.576870e+004
2.201724e+002, 8.565095e+004
2.202241e+002, 8.558757e+004
2.202759e+002, 8.563385e+004
2.203276e+002, 8.573735e+004
2.203793e+002, 8.584524e+004
2.204310e+002, 8.566632e+004
2.204828e+002, 8.562857e+004
2.205345e+002, 8.546170e+004
2.205862e+002, 8.486462e+004
2.206379e+002, 8.489959e+004
2.206897e+002, 8.518693e+004
2.207414e+002, 8.515428e+004
2.207931e+002, 8.493538e+004
2.208448e+002, 8.520845e+004
2.208966e+002, 8.514419e+004
2.209483e+002, 8.502826e+004
2.210000e+002, 8.495159e+004
2.210517e+002, 8.480676e+004
2.211035e+002, 8.448073e+004
2.211552e+002, 8.449352e+004
2.212069e+002, 8.439920e+004
2.212586e+002, 8.451673e+004
2.213103e+002, 8.456103e+004
2.213621e+002, 8.427751e+004
2.214138e+002, 8.438892e+004
2.214655e+002, 8.435902e+004
2.215172e+002, 8.443075e+004
2.215690e+002, 8.437294e+004
2.216207e+002, 8.434233e+004
2.216724e+002, 8.407315e+004
2.217241e+002, 8.401857e+004
2.217759e+002, 8.396345e+004
2.218276e+002, 8.371017e+004
2.218793e+002, 8.370791e+004
2.219310e+002, 8.378314e+004
2.219828e+002, 8.371904e+004
2.220345e+002, 8.347696e+004
2.220862e+002, 8.344280e+004
2.221379e+002, 8.320405e+004
2.221897e+002, 8.318296e+004
2.222414e+002, 8.324302e+004
2.222931e+002, 8.348720e+004
2.223448e+002, 8.348249e+004
2.223966e+002, 8.322945e+004
2.224483e+002, 8.313021e+004
2.225000e+002, 8.344445e+004
2.225517e+002, 8.354160e+004
2.226035e+002, 8.331651e+004
2.226552e+002, 8.314530e+004
2.227069e+002, 8.312173e+004
2.227586e+002, 8.314960e+004
2.228103e+002, 8.330538e+004
2.228621e+002, 8.347091e+004
2.229138e+002, 8.327480e+004
2.229655e+002, 8.326073e+004
2.230172e+002, 8.289095e+004
2.230690e+002, 8.251534e+004
2.231207e+002, 8.270046e+004
2.231724e+002, 8.257575e+004
2.232241e+002, 8.235565e+004
2.232759e+002, 8.232603e+004
2.233276e+002, 8.234481e+004
2.233793e+002, 8.246714e+004
2.234310e+002, 8.256361e+004
2.234828e+002, 8.233661e+004
2.235345e+002, 8.207913e+004
2.235862e+002, 8.204120e+004
2.236379e+002, 8.222327e+004
2.236897e+002, 8.225205e+004
2.237414e+002, 8.197674e+004
2.237931e+002, 8.191922e+004
2.238448e+002, 8.183496e+004
2.238966e+002, 8.192527e+004
2.239483e+002, 8.166628e+004
2.240000e+002, 8.171788e+004
2.240517e+002, 8.177951e+004
2.241035e+002, 8.193188e+004
2.241552e+002, 8.142854e+004
2.242069e+002, 8.110852e+004
2.242586e+002, 8.098643e+004
2.243103e+002, 8.104199e+004
2.243621e+002, 8.103426e+004
2.244138e+002, 8.116830e+004
2.244655e+002, 8.127148e+004
2.245172e+002, 8.093488e+004
2.245690e+002, 8.110108e+004
2.246207e+002, 8.090059e+004
2.246724e+002, 8.074487e+004
2.247241e+002, 8.078870e+004
2.247759e+002, 8.078969e+004
2.248276e+002, 8.086963e+004
2.248793e+002, 8.082919e+004
2.249310e+002, 8.088315e+004
2.249828e+002, 8.122571e+004
2.250345e+002, 8.147035e+004
2.250862e+002, 8.090202e+004
2.251379e+002, 8.067240e+004
2.251897e+002, 8.096377e+004
2.252414e+002, 8.091346e+004
2.252931e+002, 8.087578e+004
2.253448e+002, 8.059147e+004
2.253966e+002, 8.030009e+004
2.254483e+002, 8.015848e+004
2.255000e+002, 8.040174e+004
2.255517e+002, 8.038395e+004
2.256035e+002, 8.039562e+004
2.256552e+002, 8.043400e+004
2.257069e+002, 8.035928e+004
2.257586e+002, 8.002475e+004
2.258103e+002, 7.959114e+004
2.258621e+002, 7.934372e+004
2.259138e+002, 7.958891e+004
2.259655e+002, 7.942370e+004
2.260172e+002, 7.944882e+004
2.260690e+002, 7.961123e+004
2.261207e+002, 7.985495e+004
2.261724e+002, 7.952684e+004
2.262241e+002, 7.950994e+004
2.262759e+002, 7.966727e+004
2.263276e+002, 7.969159e+004
2.263793e+002, 7.962576e+004
2.264310e+002, 7.957314e+004
2.264828e+002, 7.944533e+004
2.265345e+002, 7.924787e+004
2.265862e+002, 7.899573e+004
2.266379e+002, 7.879061e+004
2.266897e+002, 7.864919e+004
2.267414e+002, 7.887965e+004
2.267931e+002, 7.912170e+004
2.268448e+002, 7.927152e+004
2.268966e+002, 7.920442e+004
2.269483e+002, 7.906870e+004
2.270000e+002, 7.882834e+004
2.270517e+002, 7.863503e+004
2.271035e+002, 7.845689e+004
2.271552e+002, 7.868673e+004
2.272069e+002, 7.865625e+004
2.272586e+002, 7.849902e+004
2.273103e+002, 7.835938e+004
2.273621e+002, 7.855197e+004
2.274138e+002, 7.828952e+004
2.274655e+002, 7.829102e+004
2.275172e+002, 7.851798e+004
2.275690e+002, 7.861313e+004
2.276207e+002, 7.820820e+004
2.276724e+002, 7.795496e+004
2.277241e+002, 7.793084e+004
2.277759e+002, 7.785441e+004
2.278276e+002, 7.770594e+004
2.278793e+002, 7.766577e+004
2.279310e+002, 7.746746e+004
2.279828e+002, 7.758871e+004
2.280345e+002, 7.740363e+004
2.280862e+002, 7.762666e+004
2.281379e+002, 7.763981e+004
2.281897e+002, 7.752875e+004
2.282414e+002, 7.719380e+004
2.282931e+002, 7.711910e+004
2.283448e+002, 7.719986e+004
2.283966e+002, 7.745595e+004
2.284483e+002, 7.742130e+004
2.285000e+002, 7.711413e+004
2.285517e+002, 7.705800e+004
2.286035e+002, 7.710362e+004
2.286552e+002, 7.719246e+004
2.287069e+002, 7.719205e+004
2.287586e+002, 7.724272e+004
2.288103e+002, 7.693588e+004
2.288621e+002, 7.702109e+004
2.289138e+002, 7.678085e+004
2.289655e+002, 7.672305e+004
2.290172e+002, 7.694045e+004
2.290690e+002, 7.662462e+004
2.291207e+002, 7.640322e+004
2.291724e+002, 7.664957e+004
2.292241e+002, 7.681672e+004
2.292759e+002, 7.636666e+004
2.293276e+002, 7.619271e+004
2.293793e+002, 7.644034e+004
2.294310e+002, 7.645308e+004
2.294828e+002, 7.618722e+004
2.295345e+002, 7.627221e+004
2.295862e+002, 7.602315e+004
2.296379e+002, 7.609355e+004
2.296897e+002, 7.610155e+004
2.297414e+002, 7.591124e+004
2.297931e+002, 7.601166e+004
2.298448e+002, 7.622180e+004
2.298966e+002, 7.619286e+004
2.299483e+002, 7.586230e+004
2.300000e+002, 7.581909e+004
2.300517e+002, 7.576669e+004
2.301035e+002, 7.592117e+004
2.301552e+002, 7.607531e+004
2.302069e+002, 7.587664e+004
2.302586e+002, 7.578046e+004
2.303103e+002, 7.572471e+004
2.303621e+002, 7.542368e+004
2.304138e+002, 7.520951e+004
2.304655e+002, 7.544575e+004
2.305172e+002, 7.538574e+004
2.305690e+002, 7.554780e+004
2.306207e+002, 7.531335e+004
2.306724e+002, 7.511887e+004
2.307241e+002, 7.499433e+004
2.307759e+002, 7.490891e+004
2.308276e+002, 7.480155e+004
2.308793e+002, 7.478080e+004
2.309310e+002, 7.485156e+004
2.309828e+002, 7.476005e+004
2.310345e+002, 7.509572e+004
2.310862e+002, 7.496930e+004
2.311379e+002, 7.457789e+004
2.311897e+002, 7.447745e+004
2.312414e+002, 7.476749e+004
2.312931e+002, 7.493321e+004
2.313448e+002, 7.489148e+004
2.313966e+002, 7.472620e+004
2.314483e+002, 7.423032e+004
2.315000e+002, 7.437154e+004
2.315517e+002, 7.444752e+004
2.316035e+002, 7.432428e+004
2.316552e+002, 7.430373e+004
2.317069e+002, 7.421302e+004
2.317586e+002, 7.408786e+004
2.318103e+002, 7.402435e+004
2.318621e+002, 7.405186e+004
2.319138e+002, 7.401227e+004
2.319655e+002, 7.408591e+004
2.320172e+002, 7.414348e+004
2.320690e+002, 7.408220e+004
2.321207e+002, 7.419248e+004
2.321724e+002, 7.415661e+004
2.322241e+002, 7.388816e+004
2.322759e+002, 7.388748e+004
2.323276e+002, 7.391640e+004
2.323793e+002, 7.347949e+004
2.324310e+002, 7.332553e+004
2.324828e+002, 7.351768e+004
2.325345e+002, 7.356005e+004
2.325862e+002, 7.332713e+004
2.326379e+002, 7.346266e+004
2.326897e+002, 7.333070e+004
2.327414e+002, 7.339230e+004
2.327931e+002, 7.316170e+004
2.328448e+002, 7.318259e+004
2.328966e+002, 7.295038e+004
2.329483e+002, 7.293310e+004
2.330000e+002, 7.268638e+004
2.330517e+002, 7.274661e+004
2.331035e+002, 7.291768e+004
2.331552e+002, 7.307807e+004
2.332069e+002, 7.311869e+004
2.332586e+002, 7.274356e+004
2.333103e+002, 7.254362e+004
2.333621e+002, 7.258709e+004
2.334138e+002, 7.264295e+004
2.334655e+002, 7.271351e+004
2.335172e+002, 7.309642e+004
2.335690e+002, 7.295590e+004
2.336207e+002, 7.252376e+004
2.336724e+002, 7.248341e+004
2.337241e+002, 7.244760e+004
2.337759e+002, 7.250718e+004
2.338276e+002, 7.276748e+004
2.338793e+002, 7.265968e+004
2.339310e+002, 7.248931e+004
2.339828e+002, 7.257098e+004
2.340345e+002, 7.256880e+004
2.340862e+002, 7.229677e+004
2.341379e+002, 7.196007e+004
2.341897e+002, 7.178537e+004
2.342414e+002, 7.176671e+004
2.342931e+002, 7.184518e+004
2.343448e+002, 7.205061e+004
2.343966e+002, 7.173754e+004
2.344483e+002, 7.174813e+004
2.345000e+002, 7.171533e+004
2.345517e+002, 7.179051e+004
2.346035e+002, 7.182170e+004
2.346552e+002, 7.163342e+004
2.347069e+002, 7.124682e+004
2.347586e+002, 7.112221e+004
2.348103e+002, 7.112733e+004
2.348621e+002, 7.114281e+004
2.349138e+002, 7.119295e+004
2.349655e+002, 7.133734e+004
2.350172e+002, 7.128984e+004
2.350690e+002, 7.128769e+004
2.351207e+002, 7.126105e+004
2.351724e+002, 7.114300e+004
2.352241e+002, 7.108392e+004
2.352759e+002, 7.106852e+004
2.353276e+002, 7.084024e+004
2.353793e+002, 7.086295e+004
2.354310e+002, 7.115501e+004
2.354828e+002, 7.123789e+004
2.355345e+002, 7.085204e+004
2.355862e+002, 7.080377e+004
2.356379e+002, 7.062827e+004
2.356897e+002, 7.038532e+004
2.357414e+002, 7.048142e+004
2.357931e+002, 7.041990e+004
2.358448e+002, 7.056756e+004
2.358966e+002, 7.061518e+004
2.359483e+002, 7.058170e+004
2.360000e+002, 7.050090e+004
2.360517e+002, 7.025135e+004
2.361035e+002, 6.997168e+004
2.361552e+002, 6.994751e+004
2.362069e+002, 7.006632e+004
2.362586e+002, 6.999205e+004
2.363103e+002, 6.999084e+004
2.363621e+002, 7.009865e+004
2.364138e+002, 7.009322e+004
2.364655e+002, 7.016938e+004
2.365172e+002, 7.019528e+004
2.365690e+002, 7.016791e+004
2.366207e+002, 7.017956e+004
2.366724e+002, 7.026762e+004
2.367242e+002, 6.999838e+004
2.367759e+002, 6.993755e+004
2.368276e+002, 6.970020e+004
2.368793e+002, 6.957208e+004
2.369310e+002, 6.950201e+004
2.369828e+002, 6.948026e+004
2.370345e+002, 6.930583e+004
2.370862e+002, 6.949102e+004
2.371379e+002, 6.971790e+004
2.371897e+002, 6.977862e+004
2.372414e+002, 6.965685e+004
2.372931e+002, 6.968292e+004
2.373448e+002, 6.968689e+004
2.373966e+002, 6.926534e+004
2.374483e+002, 6.923742e+004
2.375000e+002, 6.901372e+004
2.375517e+002, 6.883733e+004
2.376035e+002, 6.903224e+004
2.376552e+002, 6.909942e+004
2.377069e+002, 6.932213e+004
2.377586e+002, 6.916824e+004
2.378103e+002, 6.897615e+004
2.378621e+002, 6.876038e+004
2.379138e+002, 6.876752e+004
2.379655e+002, 6.873334e+004
2.380172e+002, 6.874709e+004
2.380690e+002, 6.875553e+004
2.381207e+002, 6.865307e+004
2.381724e+002, 6.861673e+004
2.382242e+002, 6.847196e+004
2.382759e+002, 6.827427e+004
2.383276e+002, 6.840577e+004
2.383793e+002, 6.851951e+004
2.384310e+002, 6.815920e+004
2.384828e+002, 6.813709e+004
2.385345e+002, 6.831008e+004
2.385862e+002, 6.831303e+004
2.386379e+002, 6.828740e+004
2.386897e+002, 6.831432e+004
2.387414e+002, 6.829039e+004
2.387931e+002, 6.837490e+004
2.388448e+002, 6.810452e+004
2.388966e+002, 6.783807e+004
2.389483e+002, 6.783246e+004
2.390000e+002, 6.803102e+004
2.390517e+002, 6.793828e+004
2.391035e+002, 6.783091e+004
2.391552e+002, 6.780593e+004
2.392069e+002, 6.755461e+004
2.392586e+002, 6.740058e+004
2.393103e+002, 6.711592e+004
2.393621e+002, 6.696706e+004
2.394138e+002, 6.707442e+004
2.394655e+002, 6.728183e+004
2.395172e+002, 6.716352e+004
2.395690e+002, 6.736515e+004
2.396207e+002, 6.764813e+004
2.396724e+002, 6.778791e+004
2.397242e+002, 6.768130e+004
2.397759e+002, 6.767734e+004
2.398276e+002, 6.742533e+004
2.398793e+002, 6.715416e+004
2.399310e+002, 6.713555e+004
2.399828e+002, 6.707982e+004
2.400345e+002, 6.709028e+004
2.400862e+002, 6.717088e+004
2.401379e+002, 6.734637e+004
2.401897e+002, 6.721591e+004
2.402414e+002, 6.726640e+004
2.402931e+002, 6.710547e+004
2.403448e+002, 6.717821e+004
2.403966e+002, 6.714798e+004
2.404483e+002, 6.689321e+004
2.405000e+002, 6.677678e+004
2.405517e+002, 6.672972e+004
2.406035e+002, 6.679597e+004
2.406552e+002, 6.695653e+004
2.407069e+002, 6.702562e+004
2.407586e+002, 6.694565e+004
2.408103e+002, 6.703903e+004
2.408621e+002, 6.717402e+004
2.409138e+002, 6.701844e+004
2.409655e+002, 6.657709e+004
2.410172e+002, 6.678672e+004
2.410690e+002, 6.649670e+004
2.411207e+002, 6.635820e+004
2.411724e+002, 6.657322e+004
2.412242e+002, 6.654617e+004
2.412759e+002, 6.630134e+004
2.413276e+002, 6.591545e+004
2.413793e+002, 6.584047e+004
2.414310e+002, 6.604686e+004
2.414828e+002, 6.611824e+004
2.415345e+002, 6.588470e+004
2.415862e+002, 6.582216e+004
2.416379e+002, 6.583756e+004
2.416897e+002, 6.554959e+004
2.417414e+002, 6.538982e+004
2.417931e+002, 6.552335e+004
2.418448e+002, 6.552898e+004
2.418966e+002, 6.550593e+004
2.419483e+002, 6.554848e+004
2.420000e+002, 6.552554e+004
2.420517e+002, 6.573751e+004
2.421035e+002, 6.555399e+004
2.421552e+002, 6.535167e+004
2.422069e+002, 6.543898e+004
2.422586e+002, 6.554741e+004
2.423103e+002, 6.564495e+004
2.423621e+002, 6.567533e+004
2.424138e+002, 6.553845e+004
2.424655e+002, 6.531013e+004
2.425172e+002, 6.516595e+004
2.425690e+002, 6.509885e+004
2.426207e+002, 6.522068e+004
2.426724e+002, 6.538446e+004
2.427242e+002, 6.536070e+004
2.427759e+002, 6.512370e+004
2.428276e+002, 6.491447e+004
2.428793e+002, 6.482622e+004
2.429310e+002, 6.458571e+004
2.429828e+002, 6.454545e+004
2.430345e+002, 6.478500e+004
2.430862e+002, 6.493757e+004
2.431379e+002, 6.476979e+004
2.431897e+002, 6.476410e+004
2.432414e+002, 6.469573e+004
2.432931e+002, 6.449077e+004
2.433448e+002, 6.457352e+004
2.433966e+002, 6.445083e+004
2.434483e+002, 6.442282e+004
2.435000e+002, 6.437138e+004
2.435517e+002, 6.401968e+004
2.436035e+002, 6.408463e+004
2.436552e+002, 6.424689e+004
2.437069e+002, 6.416195e+004
2.437586e+002, 6.377841e+004
2.438103e+002, 6.386804e+004
2.438621e+002, 6.401808e+004
2.439138e+002, 6.406907e+004
2.439655e+002, 6.383199e+004
2.440172e+002, 6.369784e+004
2.440690e+002, 6.385396e+004
2.441207e+002, 6.378074e+004
2.441724e+002, 6.371759e+004
2.442242e+002, 6.382967e+004
2.442759e+002, 6.382195e+004
2.443276e+002, 6.360850e+004
2.443793e+002, 6.339015e+004
2.444310e+002, 6.364152e+004
2.444828e+002, 6.353828e+004
2.445345e+002, 6.345004e+004
2.445862e+002, 6.341337e+004
2.446379e+002, 6.319984e+004
2.446897e+002, 6.327355e+004
2.447414e+002, 6.312974e+004
2.447931e+002, 6.299588e+004
2.448448e+002, 6.302831e+004
2.448966e+002, 6.315645e+004
2.449483e+002, 6.342555e+004
2.450000e+002, 6.355739e+004
2.450517e+002, 6.366628e+004
2.451035e+002, 6.319354e+004
2.451552e+002, 6.285575e+004
2.452069e+002, 6.275282e+004
2.452586e+002, 6.295221e+004
2.453103e+002, 6.315934e+004
2.453621e+002, 6.337999e+004
2.454138e+002, 6.334746e+004
2.454655e+002, 6.342819e+004
2.455172e+002, 6.317278e+004
2.455690e+002, 6.288760e+004
2.456207e+002, 6.285291e+004
2.456724e+002, 6.287831e+004
2.457242e+002, 6.287094e+004
2.457759e+002, 6.279634e+004
2.458276e+002, 6.267896e+004
2.458793e+002, 6.249623e+004
2.459310e+002, 6.238829e+004
2.459828e+002, 6.244072e+004
2.460345e+002, 6.227552e+004
2.460862e+002, 6.205423e+004
2.461379e+002, 6.192704e+004
2.461897e+002, 6.200454e+004
2.462414e+002, 6.208008e+004
2.462931e+002, 6.211176e+004
2.463448e+002, 6.191855e+004
2.463966e+002, 6.195340e+004
2.464483e+002, 6.184262e+004
2.465000e+002, 6.190534e+004
2.465517e+002, 6.177192e+004
2.466035e+002, 6.186748e+004
2.466552e+002, 6.174668e+004
2.467069e+002, 6.199082e+004
2.467586e+002, 6.209657e+004
2.468103e+002, 6.213350e+004
2.468621e+002, 6.225134e+004
2.469138e+002, 6.208899e+004
2.469655e+002, 6.192797e+004
2.470172e+002, 6.183836e+004
2.470690e+002, 6.167652e+004
2.471207e+002, 6.157754e+004
2.471724e+002, 6.160899e+004
2.472242e+002, 6.169127e+004
2.472759e+002, 6.143567e+004
2.473276e+002, 6.140004e+004
2.473793e+002, 6.135114e+004
2.474310e+002, 6.128318e+004
2.474828e+002, 6.152277e+004
2.475345e+002, 6.168968e+004
2.475862e+002, 6.197769e+004
2.476379e+002, 6.205355e+004
2.476897e+002, 6.183183e+004
2.477414e+002, 6.152433e+004
2.477931e+002, 6.144961e+004
2.478448e+002, 6.149644e+004
2.478966e+002, 6.129310e+004
2.479483e+002, 6.112855e+004
2.480000e+002, 6.101896e+004
2.480517e+002, 6.095566e+004
2.481035e+002, 6.128021e+004
2.481552e+002, 6.125857e+004
2.482069e+002, 6.092096e+004
2.482586e+002, 6.086101e+004
2.483103e+002, 6.106218e+004
2.483621e+002, 6.091691e+004
2.484138e+002, 6.095066e+004
2.484655e+002, 6.106415e+004
2.485172e+002, 6.099792e+004
2.485690e+002, 6.093920e+004
2.486207e+002, 6.089866e+004
2.486724e+002, 6.081446e+004
2.487242e+002, 6.071421e+004
2.487759e+002, 6.065735e+004
2.488276e+002, 6.056062e+004
2.488793e+002, 6.060691e+004
2.489310e+002, 6.057964e+004
2.489828e+002, 6.034180e+004
2.490345e+002, 6.038821e+004
2.490862e+002, 6.028191e+004
2.491379e+002, 6.056017e+004
2.491897e+002, 6.036600e+004
2.492414e+002, 6.018713e+004
2.492931e+002, 6.027946e+004
2.493448e+002, 6.038302e+004
2.493966e+002, 6.033005e+004
2.494483e+002, 6.005093e+004
2.495000e+002, 5.994127e+004
2.495517e+002, 6.016184e+004
2.496035e+002, 6.025872e+004
2.496552e+002, 6.015550e+004
2.497069e+002, 6.021989e+004
2.497586e+002, 6.032353e+004
2.498103e+002, 6.026724e+004
2.498621e+002, 6.042941e+004
2.499138e+002, 6.000349e+004
2.499655e+002, 5.966270e+004
2.500172e+002, 5.957782e+004
2.500690e+002, 5.956108e+004
2.501207e+002, 5.950900e+004
2.501724e+002, 5.961548e+004
2.502242e+002, 5.949119e+004
2.502759e+002, 5.958679e+004
2.503276e+002, 5.955343e+004
2.503793e+002, 5.971017e+004
2.504310e+002, 5.976600e+004
2.504828e+002, 5.970555e+004
2.505345e+002, 5.945068e+004
2.505862e+002, 5.948230e+004
2.506379e+002, 5.956691e+004
2.506897e+002, 5.945450e+004
2.507414e+002, 5.912204e+004
2.507931e+002, 5.902883e+004
2.508448e+002, 5.874538e+004
2.508966e+002, 5.886946e+004
2.509483e+002, 5.909018e+004
2.510000e+002, 5.930130e+004
2.510517e+002, 5.929274e+004
2.511035e+002, 5.927387e+004
2.511552e+002, 5.919565e+004
2.512069e+002, 5.923240e+004
2.512586e+002, 5.901288e+004
2.513103e+002, 5.904080e+004
2.513621e+002, 5.892447e+004
2.514138e+002, 5.901156e+004
2.514655e+002, 5.856217e+004
2.515172e+002, 5.850317e+004
2.515690e+002, 5.855600e+004
2.516207e+002, 5.858496e+004
2.516724e+002, 5.860791e+004
2.517242e+002, 5.868030e+004
2.517759e+002, 5.834788e+004
2.518276e+002, 5.844071e+004
2.518793e+002, 5.852132e+004
2.519310e+002, 5.859210e+004
2.519828e+002, 5.855548e+004
2.520345e+002, 5.854800e+004
2.520862e+002, 5.828216e+004
2.521379e+002, 5.803881e+004
2.521897e+002, 5.789847e+004
2.522414e+002, 5.784336e+004
2.522931e+002, 5.790447e+004
2.523448e+002, 5.809032e+004
2.523966e+002, 5.816216e+004
2.524483e+002, 5.822110e+004
2.525000e+002, 5.816176e+004
2.525517e+002, 5.787982e+004
2.526035e+002, 5.786395e+004
2.526552e+002, 5.791020e+004
2.527069e+002, 5.779890e+004
2.527586e+002, 5.795744e+004
2.528103e+002, 5.802796e+004
2.528621e+002, 5.764718e+004
2.529138e+002, 5.758286e+004
2.529655e+002, 5.773233e+004
2.530172e+002, 5.755884e+004
2.530690e+002, 5.769270e+004
2.531207e+002, 5.779827e+004
2.531724e+002, 5.739801e+004
2.532242e+002, 5.752495e+004
2.532759e+002, 5.790743e+004
2.533276e+002, 5.777883e+004
2.533793e+002, 5.775911e+004
2.534310e+002, 5.765073e+004
2.534828e+002, 5.742765e+004
2.535345e+002, 5.751575e+004
2.535862e+002, 5.719483e+004
2.536379e+002, 5.722307e+004
2.536897e+002, 5.736195e+004
2.537414e+002, 5.730387e+004
2.537931e+002, 5.740523e+004
2.538448e+002, 5.755374e+004
2.538966e+002, 5.750335e+004
2.539483e+002, 5.714167e+004
2.540000e+002, 5.686748e+004
2.540517e+002, 5.724172e+004
2.541035e+002, 5.719867e+004
2.541552e+002, 5.679075e+004
2.542069e+002, 5.676627e+004
2.542586e+002, 5.687498e+004
2.543103e+002, 5.710338e+004
2.543621e+002, 5.688120e+004
2.544138e+002, 5.657996e+004
2.544655e+002, 5.672619e+004
2.545172e+002, 5.684680e+004
2.545690e+002, 5.681895e+004
2.546207e+002, 5.668402e+004
2.546724e+002, 5.673861e+004
2.547242e+002, 5.630875e+004
2.547759e+002, 5.614232e+004
2.548276e+002, 5.598084e+004
2.548793e+002, 5.593779e+004
2.549310e+002, 5.599517e+004
2.549828e+002, 5.624874e+004
2.550345e+002, 5.632275e+004
2.550862e+002, 5.617697e+004
2.551379e+002, 5.619762e+004
2.551897e+002, 5.610917e+004
2.552414e+002, 5.627797e+004
2.552931e+002, 5.642285e+004
2.553448e+002, 5.623403e+004
2.553966e+002, 5.595832e+004
2.554483e+002, 5.601093e+004
2.555000e+002, 5.603737e+004
2.555517e+002, 5.598411e+004
2.556035e+002, 5.611522e+004
2.556552e+002, 5.590899e+004
2.557069e+002, 5.578328e+004
2.557586e+002, 5.568061e+004
2.558103e+002, 5.573595e+004
2.558621e+002, 5.577771e+004
2.559138e+002, 5.574100e+004
2.559655e+002, 5.562134e+004
2.560172e+002, 5.559200e+004
2.560690e+002, 5.568275e+004
2.561207e+002, 5.558557e+004
2.561724e+002, 5.537090e+004
2.562242e+002, 5.556338e+004
2.562759e+002, 5.560425e+004
2.563276e+002, 5.566434e+004
2.563793e+002, 5.572754e+004
2.564310e+002, 5.575046e+004
2.564828e+002, 5.555682e+004
2.565345e+002, 5.546812e+004
2.565862e+002, 5.543790e+004
2.566379e+002, 5.551818e+004
2.566897e+002, 5.541338e+004
2.567414e+002, 5.527088e+004
2.567931e+002, 5.530239e+004
2.568448e+002, 5.537454e+004
2.568965e+002, 5.516118e+004
2.569483e+002, 5.479646e+004
2.570000e+002, 5.471067e+004
2.570517e+002, 5.459209e+004
2.571035e+002, 5.490818e+004
2.571552e+002, 5.501827e+004
2.572069e+002, 5.470560e+004
2.572586e+002, 5.489366e+004
2.573104e+002, 5.506711e+004
2.573621e+002, 5.483580e+004
2.574138e+002, 5.457782e+004
2.574655e+002, 5.487871e+004
2.575172e+002, 5.507980e+004
2.575690e+002, 5.467674e+004
2.576207e+002, 5.430950e+004
2.576724e+002, 5.430371e+004
2.577242e+002, 5.462741e+004
2.577759e+002, 5.496231e+004
2.578276e+002, 5.484471e+004
2.578793e+002, 5.473284e+004
2.579310e+002, 5.495659e+004
2.579828e+002, 5.451829e+004
2.580345e+002, 5.432204e+004
2.580862e+002, 5.437223e+004
2.581379e+002, 5.441102e+004
2.581897e+002, 5.438222e+004
2.582414e+002, 5.437802e+004
2.582931e+002, 5.434462e+004
2.583448e+002, 5.463996e+004
2.583965e+002, 5.462809e+004
2.584483e+002, 5.447862e+004
2.585000e+002, 5.446740e+004
2.585517e+002, 5.468614e+004
2.586035e+002, 5.432668e+004
2.586552e+002, 5.427406e+004
2.587069e+002, 5.417659e+004
2.587586e+002, 5.401882e+004
2.588104e+002, 5.402957e+004
2.588621e+002, 5.391293e+004
2.589138e+002, 5.368806e+004
2.589655e+002, 5.382534e+004
2.590172e+002, 5.384396e+004
2.590690e+002, 5.361786e+004
2.591207e+002, 5.361419e+004
2.591724e+002, 5.376168e+004
2.592242e+002, 5.359030e+004
2.592759e+002, 5.356694e+004
2.593276e+002, 5.389675e+004
2.593793e+002, 5.404266e+004
2.594310e+002, 5.381340e+004
2.594828e+002, 5.363958e+004
2.595345e+002, 5.362054e+004
2.595862e+002, 5.384919e+004
2.596379e+002, 5.366154e+004
2.596897e+002, 5.350964e+004
2.597414e+002, 5.339813e+004
2.597931e+002, 5.340124e+004
2.598448e+002, 5.302227e+004
2.598965e+002, 5.305775e+004
2.599483e+002, 5.311376e+004
2.600000e+002, 5.308338e+004
2.600517e+002, 5.307842e+004
2.601035e+002, 5.316909e+004
2.601552e+002, 5.309648e+004
2.602069e+002, 5.325282e+004
2.602586e+002, 5.287846e+004
2.603104e+002, 5.260350e+004
2.603621e+002, 5.249045e+004
2.604138e+002, 5.272960e+004
2.604655e+002, 5.302699e+004
2.605172e+002, 5.324702e+004
2.605690e+002, 5.323365e+004
2.606207e+002, 5.305900e+004
2.606724e+002, 5.292168e+004
2.607242e+002, 5.272265e+004
2.607759e+002, 5.260400e+004
2.608276e+002, 5.255872e+004
2.608793e+002, 5.272036e+004
2.609310e+002, 5.299436e+004
2.609828e+002, 5.274067e+004
2.610345e+002, 5.266241e+004
2.610862e+002, 5.244827e+004
2.611379e+002, 5.240859e+004
2.611897e+002, 5.255891e+004
2.612414e+002, 5.230632e+004
2.612931e+002, 5.248403e+004
2.613448e+002, 5.260333e+004
2.613965e+002, 5.235490e+004
2.614483e+002, 5.243050e+004
2.615000e+002, 5.261764e+004
2.615517e+002, 5.234059e+004
2.616035e+002, 5.204159e+004
2.616552e+002, 5.199469e+004
2.617069e+002, 5.227474e+004
2.617586e+002, 5.236800e+004
2.618104e+002, 5.231579e+004
2.618621e+002, 5.233104e+004
2.619138e+002, 5.239171e+004
2.619655e+002, 5.209138e+004
2.620172e+002, 5.199295e+004
2.620690e+002, 5.230779e+004
2.621207e+002, 5.241996e+004
2.621724e+002, 5.187608e+004
2.622242e+002, 5.175287e+004
2.622759e+002, 5.216991e+004
2.623276e+002, 5.214955e+004
2.623793e+002, 5.192778e+004
2.624310e+002, 5.177196e+004
2.624828e+002, 5.165880e+004
2.625345e+002, 5.137305e+004
2.625862e+002, 5.139045e+004
2.626379e+002, 5.148096e+004
2.626897e+002, 5.155918e+004
2.627414e+002, 5.136233e+004
2.627931e+002, 5.121202e+004
2.628448e+002, 5.135146e+004
2.628965e+002, 5.153277e+004
2.629483e+002, 5.131592e+004
2.630000e+002, 5.122322e+004
2.630517e+002, 5.124120e+004
2.631035e+002, 5.135371e+004
2.631552e+002, 5.143727e+004
2.632069e+002, 5.171373e+004
2.632586e+002, 5.153746e+004
2.633104e+002, 5.140416e+004
2.633621e+002, 5.126642e+004
2.634138e+002, 5.122363e+004
2.634655e+002, 5.116766e+004
2.635172e+002, 5.108053e+004
2.635690e+002, 5.084097e+004
2.636207e+002, 5.116011e+004
2.636724e+002, 5.122747e+004
2.637242e+002, 5.122736e+004
2.637759e+002, 5.129092e+004
2.638276e+002, 5.142781e+004
2.638793e+002, 5.111618e+004
2.639310e+002, 5.133348e+004
2.639828e+002, 5.121636e+004
2.640345e+002, 5.126762e+004
2.640862e+002, 5.121631e+004
2.641379e+002, 5.136314e+004
2.641897e+002, 5.127009e+004
2.642414e+002, 5.131135e+004
2.642931e+002, 5.118637e+004
2.643448e+002, 5.087620e+004
2.643965e+002, 5.086921e+004
2.644483e+002, 5.085566e+004
2.645000e+002, 5.063927e+004
2.645517e+002, 5.090750e+004
2.646035e+002, 5.110731e+004
2.646552e+002, 5.078343e+004
2.647069e+002, 5.057967e+004
2.647586e+002, 5.060295e+004
2.648104e+002, 5.049223e+004
2.648621e+002, 5.042182e+004
2.649138e+002, 5.054078e+004
2.649655e+002, 5.051879e+004
2.650172e+002, 5.080573e+004
2.650690e+002, 5.064560e+004
2.651207e+002, 5.041264e+004
2.651724e+002, 5.051419e+004
2.652242e+002, 5.038405e+004
2.652759e+002, 5.027553e+004
2.653276e+002, 5.025834e+004
2.653793e+002, 5.038563e+004
2.654310e+002, 5.037965e+004
2.654828e+002, 5.028260e+004
2.655345e+002, 5.011120e+004
2.655862e+002, 4.996839e+004
2.656379e+002, 5.017438e+004
2.656897e+002, 5.027949e+004
2.657414e+002, 5.009289e+004
2.657931e+002, 5.006452e+004
2.658448e+002, 5.003311e+004
2.658965e+002, 4.983397e+004
2.659483e+002, 4.989102e+004
2.660000e+002, 4.986547e+004
2.660517e+002, 4.986956e+004
2.661035e+002, 4.963690e+004
2.661552e+002, 4.975463e+004
2.662069e+002, 4.986832e+004
2.662586e+002, 4.978793e+004
2.663104e+002, 4.995104e+004
2.663621e+002, 4.983347e+004
2.664138e+002, 4.978267e+004
2.664655e+002, 4.961302e+004
2.665172e+002, 4.952893e+004
2.665690e+002, 4.952445e+004
2.666207e+002, 4.958377e+004
2.666724e+002, 4.939110e+004
2.667242e+002, 4.955821e+004
2.667759e+002, 4.954841e+004
2.668276e+002, 4.942724e+004
2.668793e+002, 4.947696e+004
2.669310e+002, 4.950555e+004
2.669828e+002, 4.918146e+004
2.670345e+002, 4.901310e+004
2.670862e+002, 4.912660e+004
2.671379e+002, 4.925143e+004
2.671897e+002, 4.911291e+004
2.672414e+002, 4.938937e+004
2.672931e+002, 4.914675e+004
2.673448e+002, 4.915017e+004
2.673965e+002, 4.924136e+004
2.674483e+002, 4.898899e+004
2.675000e+002, 4.897055e+004
2.675517e+002, 4.902010e+004
2.676035e+002, 4.895501e+004
2.676552e+002, 4.876520e+004
2.677069e+002, 4.885055e+004
2.677586e+002, 4.860691e+004
2.678104e+002, 4.882940e+004
2.678621e+002, 4.887514e+004
2.679138e+002, 4.894203e+004
2.679655e+002, 4.888194e+004
2.680172e+002, 4.881310e+004
2.680690e+002, 4.892515e+004
2.681207e+002, 4.909378e+004
2.681724e+002, 4.897520e+004
2.682242e+002, 4.868420e+004
2.682759e+002, 4.881766e+004
2.683276e+002, 4.889958e+004
2.683793e+002, 4.888573e+004
2.684310e+002, 4.858711e+004
2.684828e+002, 4.861995e+004
2.685345e+002, 4.872330e+004
2.685862e+002, 4.874109e+004
2.686379e+002, 4.864614e+004
2.686897e+002, 4.846657e+004
2.687414e+002, 4.835796e+004
2.687931e+002, 4.831009e+004
2.688448e+002, 4.823244e+004
2.688965e+002, 4.830171e+004
2.689483e+002, 4.832598e+004
2.690000e+002, 4.807839e+004
2.690517e+002, 4.805783e+004
2.691035e+002, 4.789961e+004
2.691552e+002, 4.805364e+004
2.692069e+002, 4.815119e+004
2.692586e+002, 4.825798e+004
2.693104e+002, 4.819395e+004
2.693621e+002, 4.816766e+004
2.694138e+002, 4.820507e+004
2.694655e+002, 4.817525e+004
2.695172e+002, 4.834662e+004
2.695690e+002, 4.829920e+004
2.696207e+002, 4.781241e+004
2.696724e+002, 4.784484e+004
2.697242e+002, 4.779889e+004
2.697759e+002, 4.789712e+004
2.698276e+002, 4.790573e+004
2.698793e+002, 4.789300e+004
2.699310e+002, 4.750920e+004
2.699828e+002, 4.763189e+004
2.700345e+002, 4.785193e+004
2.700862e+002, 4.765579e+004
2.701379e+002, 4.753802e+004
2.701897e+002, 4.749941e+004
2.702414e+002, 4.769602e+004
2.702931e+002, 4.764706e+004
2.703448e+002, 4.771312e+004
2.703965e+002, 4.753620e+004
2.704483e+002, 4.784437e+004
2.705000e+002, 4.788131e+004
2.705517e+002, 4.742871e+004
2.706035e+002, 4.689389e+004
2.706552e+002, 4.727045e+004
2.707069e+002, 4.740534e+004
2.707586e+002, 4.735304e+004
2.708104e+002, 4.712506e+004
2.708621e+002, 4.703744e+004
2.709138e+002, 4.703226e+004
2.709655e+002, 4.735957e+004
2.710172e+002, 4.720021e+004
2.710690e+002, 4.699584e+004
2.711207e+002, 4.724073e+004
2.711724e+002, 4.740593e+004
2.712242e+002, 4.735286e+004
2.712759e+002, 4.725515e+004
2.713276e+002, 4.710092e+004
2.713793e+002, 4.686647e+004
2.714310e+002, 4.688762e+004
2.714828e+002, 4.694595e+004
2.715345e+002, 4.700706e+004
2.715862e+002, 4.696130e+004
2.716379e+002, 4.679310e+004
2.716897e+002, 4.692354e+004
2.717414e+002, 4.719148e+004
2.717931e+002, 4.694585e+004
2.718448e+002, 4.654975e+004
2.718965e+002, 4.644501e+004
2.719483e+002, 4.647943e+004
2.720000e+002, 4.661959e+004
2.720517e+002, 4.655266e+004
2.721035e+002, 4.650221e+004
2.721552e+002, 4.650984e+004
2.722069e+002, 4.663034e+004
2.722586e+002, 4.665445e+004
2.723104e+002, 4.676690e+004
2.723621e+002, 4.697200e+004
2.724138e+002, 4.672690e+004
2.724655e+002, 4.657332e+004
2.725172e+002, 4.656891e+004
2.725690e+002, 4.653374e+004
2.726207e+002, 4.642762e+004
2.726724e+002, 4.660316e+004
2.727242e+002, 4.641159e+004
2.727759e+002, 4.648858e+004
2.728276e+002, 4.640138e+004
2.728793e+002, 4.605169e+004
2.729310e+002, 4.613947e+004
2.729828e+002, 4.628348e+004
2.730345e+002, 4.629222e+004
2.730862e+002, 4.649224e+004
2.731379e+002, 4.655845e+004
2.731897e+002, 4.628245e+004
2.732414e+002, 4.620381e+004
2.732931e+002, 4.622389e+004
2.733448e+002, 4.638525e+004
2.733965e+002, 4.640186e+004
2.734483e+002, 4.624684e+004
2.735000e+002, 4.626086e+004
2.735517e+002, 4.604383e+004
2.736035e+002, 4.582548e+004
2.736552e+002, 4.554236e+004
2.737069e+002, 4.567414e+004
2.737586e+002, 4.574395e+004
2.738104e+002, 4.556601e+004
2.738621e+002, 4.553347e+004
2.739138e+002, 4.591475e+004
2.739655e+002, 4.579590e+004
2.740172e+002, 4.570698e+004
2.740690e+002, 4.590530e+004
2.741207e+002, 4.566411e+004
2.741724e+002, 4.551104e+004
2.742242e+002, 4.543698e+004
2.742759e+002, 4.556107e+004
2.743276e+002, 4.581677e+004
2.743793e+002, 4.584554e+004
2.744310e+002, 4.553331e+004
2.744828e+002, 4.548541e+004
2.745345e+002, 4.558769e+004
2.745862e+002, 4.539957e+004
2.746379e+002, 4.520204e+004
2.746897e+002, 4.536619e+004
2.747414e+002, 4.563714e+004
2.747931e+002, 4.560537e+004
2.748448e+002, 4.553099e+004
2.748965e+002, 4.523989e+004
2.749483e+002, 4.550197e+004
2.750000e+002, 4.528891e+004
2.750517e+002, 4.500861e+004
2.751035e+002, 4.519003e+004
2.751552e+002, 4.525459e+004
2.752069e+002, 4.507828e+004
2.752586e+002, 4.512910e+004
2.753104e+002, 4.512087e+004
2.753621e+002, 4.519579e+004
2.754138e+002, 4.553901e+004
2.754655e+002, 4.572424e+004
2.755172e+002, 4.541092e+004
2.755690e+002, 4.510293e+004
2.756207e+002, 4.535051e+004
2.756724e+002, 4.521667e+004
2.757242e+002, 4.535573e+004
2.757759e+002, 4.538463e+004
2.758276e+002, 4.533804e+004
2.758793e+002, 4.525089e+004
2.759310e+002, 4.523514e+004
2.759828e+002, 4.512730e+004
2.760345e+002, 4.504639e+004
2.760862e+002, 4.525853e+004
2.761379e+002, 4.514055e+004
2.761897e+002, 4.517327e+004
2.762414e+002, 4.493526e+004
2.762931e+002, 4.470518e+004
2.763448e+002, 4.490198e+004
2.763965e+002, 4.507232e+004
2.764483e+002, 4.492729e+004
2.765000e+002, 4.509113e+004
2.765517e+002, 4.499573e+004
2.766035e+002, 4.480167e+004
2.766552e+002, 4.527266e+004
2.767069e+002, 4.526264e+004
2.767586e+002, 4.508423e+004
2.768104e+002, 4.489348e+004
2.768621e+002, 4.505129e+004
2.769138e+002, 4.476959e+004
2.769655e+002, 4.478807e+004
2.770172e+002, 4.508038e+004
2.770690e+002, 4.503482e+004
2.771207e+002, 4.475254e+004
2.771724e+002, 4.474417e+004
2.772242e+002, 4.475684e+004
2.772759e+002, 4.480928e+004
2.773276e+002, 4.483025e+004
2.773793e+002, 4.467468e+004
2.774310e+002, 4.490085e+004
2.774828e+002, 4.499081e+004
2.775345e+002, 4.496524e+004
2.775862e+002, 4.487793e+004
2.776379e+002, 4.492936e+004
2.776897e+002, 4.500575e+004
2.777414e+002, 4.508492e+004
2.777931e+002, 4.502318e+004
2.778448e+002, 4.512789e+004
2.778965e+002, 4.525338e+004
2.779483e+002, 4.517710e+004
2.780000e+002, 4.501532e+004
2.780517e+002, 4.496034e+004
2.781035e+002, 4.500492e+004
2.781552e+002, 4.492725e+004
2.782069e+002, 4.502741e+004
2.782586e+002, 4.519739e+004
2.783104e+002, 4.534255e+004
2.783621e+002, 4.515866e+004
2.784138e+002, 4.509197e+004
2.784655e+002, 4.502509e+004
2.785172e+002, 4.524709e+004
2.785690e+002, 4.534171e+004
2.786207e+002, 4.529480e+004
2.786724e+002, 4.546432e+004
2.787242e+002, 4.542164e+004
2.787759e+002, 4.520261e+004
2.788276e+002, 4.544724e+004
2.788793e+002, 4.577318e+004
2.789310e+002, 4.577718e+004
2.789828e+002, 4.598077e+004
2.790345e+002, 4.617522e+004
2.790862e+002, 4.594831e+004
2.791379e+002, 4.607610e+004
2.791897e+002, 4.620382e+004
2.792414e+002, 4.617552e+004
2.792931e+002, 4.628441e+004
2.793448e+002, 4.645394e+004
2.793965e+002, 4.646641e+004
2.794483e+002, 4.661813e+004
2.795000e+002, 4.668657e+004
2.795517e+002, 4.675876e+004
2.796035e+002, 4.713480e+004
2.796552e+002, 4.746865e+004
2.797069e+002, 4.773184e+004
2.797586e+002, 4.792821e+004
2.798104e+002, 4.821873e+004
2.798621e+002, 4.841753e+004
2.799138e+002, 4.855057e+004
2.799655e+002, 4.896999e+004
2.800172e+002, 4.923672e+004
2.800690e+002, 4.972860e+004
2.801207e+002, 5.026438e+004
2.801724e+002, 5.063958e+004
2.802242e+002, 5.122544e+004
2.802759e+002, 5.190169e+004
2.803276e+002, 5.249374e+004
2.803793e+002, 5.342574e+004
2.804310e+002, 5.442016e+004
2.804828e+002, 5.521033e+004
2.805345e+002, 5.624079e+004
2.805862e+002, 5.730007e+004
2.806379e+002, 5.845631e+004
2.806897e+002, 5.988289e+004
2.807414e+002, 6.151191e+004
2.807931e+002, 6.299624e+004
2.808448e+002, 6.471820e+004
2.808965e+002, 6.646121e+004
2.809483e+002, 6.857441e+004
2.810000e+002, 7.094128e+004
2.810517e+002, 7.349674e+004
2.811035e+002, 7.584846e+004
2.811552e+002, 7.882355e+004
2.812069e+002, 8.220660e+004
2.812586e+002, 8.544011e+004
2.813104e+002, 8.918154e+004
2.813621e+002, 9.316019e+004
2.814138e+002, 9.749590e+004
2.814655e+002, 1.023231e+005
2.815172e+002, 1.073154e+005
2.815690e+002, 1.121208e+005
2.816207e+002, 1.169607e+005
2.816724e+002, 1.225963e+005
2.817242e+002, 1.287450e+005
2.817759e+002, 1.352200e+005
2.818276e+002, 1.414205e+005
2.818793e+002, 1.476719e+005
2.819310e+002, 1.544779e+005
2.819828e+002, 1.608619e+005
2.820345e+002, 1.673022e+005
2.820862e+002, 1.740813e+005
2.821379e+002, 1.812371e+005
2.821897e+002, 1.882633e+005
2.822414e+002, 1.951607e+005
2.822931e+002, 2.018332e+005
2.823448e+002, 2.081088e+005
2.823965e+002, 2.146638e+005
2.824483e+002, 2.209174e+005
2.825000e+002, 2.268009e+005
2.825517e+002, 2.323581e+005
2.826035e+002, 2.374698e+005
2.826552e+002, 2.417476e+005
2.827069e+002, 2.463546e+005
2.827586e+002, 2.509545e+005
2.828104e+002, 2.546433e+005
2.828621e+002, 2.582258e+005
2.829138e+002, 2.609946e+005
2.829655e+002, 2.636660e+005
2.830172e+002, 2.659971e+005
2.830690e+002, 2.673319e+005
2.831207e+002, 2.680309e+005
2.831724e+002, 2.689460e+005
2.832242e+002, 2.695891e+005
2.832759e+002, 2.705340e+005
2.833276e+002, 2.706737e+005
2.833793e+002, 2.703211e+005
2.834310e+002, 2.698334e+005
2.834828e+002, 2.694626e+005
2.835345e+002, 2.688461e+005
2.835862e+002, 2.681331e+005
2.836379e+002, 2.671297e+005
2.836897e+002, 2.663617e+005
2.837414e+002, 2.649809e+005
2.837931e+002, 2.640132e+005
2.838448e+002, 2.629881e+005
2.838965e+002, 2.616638e+005
2.839483e+002, 2.597028e+005
2.840000e+002, 2.583931e+005
2.840517e+002, 2.576908e+005
2.841035e+002, 2.568948e+005
2.841552e+002, 2.558498e+005
2.842069e+002, 2.546023e+005
2.842586e+002, 2.539744e+005
2.843104e+002, 2.532436e+005
2.843621e+002, 2.518724e+005
2.844138e+002, 2.508012e+005
2.844655e+002, 2.494704e+005
2.845172e+002, 2.483828e+005
2.845690e+002, 2.474160e+005
2.846207e+002, 2.468391e+005
2.846724e+002, 2.457025e+005
2.847242e+002, 2.446979e+005
2.847759e+002, 2.433223e+005
2.848276e+002, 2.418929e+005
2.848793e+002, 2.413120e+005
2.849310e+002, 2.402758e+005
2.849828e+002, 2.392797e+005
2.850345e+002, 2.386188e+005
2.850862e+002, 2.382801e+005
2.851379e+002, 2.373032e+005
2.851897e+002, 2.362184e+005
2.852414e+002, 2.349325e+005
2.852931e+002, 2.341438e+005
2.853448e+002, 2.334082e+005
2.853965e+002, 2.330154e+005
2.854483e+002, 2.327275e+005
2.855000e+002, 2.324019e+005
2.855517e+002, 2.320885e+005
2.856035e+002, 2.313858e+005
2.856552e+002, 2.310529e+005
2.857069e+002, 2.308639e+005
2.857586e+002, 2.305615e+005
2.858104e+002, 2.308568e+005
2.858621e+002, 2.311889e+005
2.859138e+002, 2.307882e+005
2.859655e+002, 2.308991e+005
2.860172e+002, 2.311478e+005
2.860690e+002, 2.311041e+005
2.861207e+002, 2.314105e+005
2.861724e+002, 2.322830e+005
2.862242e+002, 2.329474e+005
2.862759e+002, 2.336751e+005
2.863276e+002, 2.339993e+005
2.863793e+002, 2.342654e+005
2.864310e+002, 2.349165e+005
2.864828e+002, 2.354707e+005
2.865345e+002, 2.364011e+005
2.865862e+002, 2.374678e+005
2.866379e+002, 2.388022e+005
2.866897e+002, 2.398842e+005
2.867414e+002, 2.411417e+005
2.867931e+002, 2.423994e+005
2.868448e+002, 2.439049e+005
2.868965e+002, 2.455456e+005
2.869483e+002, 2.469128e+005
2.870000e+002, 2.485816e+005
2.870517e+002, 2.505253e+005
2.871035e+002, 2.522264e+005
2.871552e+002, 2.545188e+005
2.872069e+002, 2.571629e+005
2.872586e+002, 2.592671e+005
2.873104e+002, 2.606883e+005
2.873621e+002, 2.631258e+005
2.874138e+002, 2.659027e+005
2.874655e+002, 2.687957e+005
2.875172e+002, 2.713813e+005
2.875690e+002, 2.743384e+005
2.876207e+002, 2.772640e+005
2.876724e+002, 2.804048e+005
2.877242e+002, 2.835843e+005
2.877759e+002, 2.873764e+005
2.878276e+002, 2.907805e+005
2.878793e+002, 2.940790e+005
2.879310e+002, 2.973651e+005
2.879828e+002, 3.006923e+005
2.880345e+002, 3.048047e+005
2.880862e+002, 3.092018e+005
2.881379e+002, 3.130309e+005
2.881897e+002, 3.168206e+005
2.882414e+002, 3.209062e+005
2.882931e+002, 3.253592e+005
2.883448e+002, 3.295265e+005
2.883965e+002, 3.330919e+005
2.884483e+002, 3.369930e+005
2.885000e+002, 3.412114e+005
2.885517e+002, 3.457115e+005
2.886035e+002, 3.488187e+005
2.886552e+002, 3.527022e+005
2.887069e+002, 3.571068e+005
2.887586e+002, 3.609773e+005
2.888104e+002, 3.651651e+005
2.888621e+002, 3.702106e+005
2.889138e+002, 3.742426e+005
2.889655e+002, 3.781449e+005
2.890172e+002, 3.812690e+005
2.890690e+002, 3.845731e+005
2.891207e+002, 3.883057e+005
2.891724e+002, 3.917757e+005
2.892242e+002, 3.954521e+005
2.892759e+002, 3.991779e+005
2.893276e+002, 4.020666e+005
2.893793e+002, 4.048892e+005
2.894310e+002, 4.078449e+005
2.894828e+002, 4.108747e+005
2.895345e+002, 4.134438e+005
2.895862e+002, 4.164796e+005
2.896379e+002, 4.187721e+005
2.896897e+002, 4.215981e+005
2.897414e+002, 4.240398e+005
2.897931e+002, 4.271391e+005
2.898448e+002, 4.288570e+005
2.898965e+002, 4.308474e+005
2.899483e+002, 4.329567e+005
2.900000e+002, 4.354249e+005
2.900517e+002, 4.376102e+005
2.901035e+002, 4.385545e+005
2.901552e+002, 4.404513e+005
2.902069e+002, 4.418252e+005
2.902586e+002, 4.434576e+005
2.903104e+002, 4.445792e+005
2.903621e+002, 4.454764e+005
2.904138e+002, 4.470334e+005
2.904655e+002, 4.487602e+005
2.905172e+002, 4.509008e+005
2.905690e+002, 4.525815e+005
2.906207e+002, 4.537323e+005
2.906724e+002, 4.542050e+005
2.907242e+002, 4.542354e+005
2.907759e+002, 4.547985e+005
2.908276e+002, 4.558851e+005
2.908793e+002, 4.567816e+005
2.909310e+002, 4.576201e+005
2.909828e+002, 4.588445e+005
2.910345e+002, 4.596460e+005
2.910862e+002, 4.602399e+005
2.911379e+002, 4.610551e+005
2.911897e+002, 4.615015e+005
2.912414e+002, 4.618048e+005
2.912931e+002, 4.617990e+005
2.913448e+002, 4.620422e+005
2.913965e+002, 4.631058e+005
2.914483e+002, 4.634826e+005
2.915000e+002, 4.639850e+005
2.915517e+002, 4.640167e+005
2.916035e+002, 4.644514e+005
2.916552e+002, 4.653432e+005
2.917069e+002, 4.665192e+005
2.917586e+002, 4.670809e+005
2.918104e+002, 4.674408e+005
2.918621e+002, 4.675703e+005
2.919138e+002, 4.675463e+005
2.919655e+002, 4.674173e+005
2.920172e+002, 4.671381e+005
2.920690e+002, 4.672482e+005
2.921207e+002, 4.676563e+005
2.921724e+002, 4.680118e+005
2.922242e+002, 4.680006e+005
2.922759e+002, 4.684097e+005
2.923276e+002, 4.690285e+005
2.923793e+002, 4.697426e+005
2.924310e+002, 4.701296e+005
2.924828e+002, 4.701973e+005
2.925345e+002, 4.710984e+005
2.925862e+002, 4.715741e+005
2.926379e+002, 4.720118e+005
2.926897e+002, 4.719784e+005
2.927414e+002, 4.721008e+005
2.927931e+002, 4.721277e+005
2.928448e+002, 4.725615e+005
2.928965e+002, 4.724765e+005
2.929483e+002, 4.726773e+005
2.930000e+002, 4.725506e+005
2.930517e+002, 4.723022e+005
2.931035e+002, 4.730154e+005
2.931552e+002, 4.732777e+005
2.932069e+002, 4.735464e+005
2.932586e+002, 4.747173e+005
2.933104e+002, 4.754781e+005
2.933621e+002, 4.747258e+005
2.934138e+002, 4.737326e+005
2.934655e+002, 4.745214e+005
2.935172e+002, 4.754616e+005
2.935690e+002, 4.752925e+005
2.936207e+002, 4.757493e+005
2.936724e+002, 4.764279e+005
2.937242e+002, 4.763990e+005
2.937759e+002, 4.766987e+005
2.938276e+002, 4.761926e+005
2.938793e+002, 4.753910e+005
2.939310e+002, 4.749227e+005
2.939828e+002, 4.750110e+005
2.940345e+002, 4.750029e+005
2.940862e+002, 4.754329e+005
2.941379e+002, 4.765655e+005
2.941897e+002, 4.775769e+005
2.942414e+002, 4.780201e+005
2.942931e+002, 4.788238e+005
2.943448e+002, 4.788906e+005
2.943965e+002, 4.781902e+005
2.944483e+002, 4.777609e+005
2.945000e+002, 4.784263e+005
2.945517e+002, 4.780563e+005
2.946035e+002, 4.781561e+005
2.946552e+002, 4.784642e+005
2.947069e+002, 4.787793e+005
2.947586e+002, 4.787233e+005
2.948104e+002, 4.787009e+005
2.948621e+002, 4.786419e+005
2.949138e+002, 4.788798e+005
2.949655e+002, 4.793187e+005
2.950172e+002, 4.793753e+005
2.950690e+002, 4.794352e+005
2.951207e+002, 4.797471e+005
2.951724e+002, 4.799708e+005
2.952242e+002, 4.798872e+005
2.952759e+002, 4.801119e+005
2.953276e+002, 4.798864e+005
2.953793e+002, 4.795580e+005
2.954310e+002, 4.800353e+005
2.954828e+002, 4.808528e+005
2.955345e+002, 4.811163e+005
2.955862e+002, 4.807659e+005
2.956379e+002, 4.806073e+005
2.956897e+002, 4.807235e+005
2.957414e+002, 4.806700e+005
2.957931e+002, 4.799252e+005
2.958448e+002, 4.795735e+005
2.958965e+002, 4.798073e+005
2.959483e+002, 4.795982e+005
2.960000e+002, 4.795340e+005
2.960517e+002, 4.794621e+005
2.961035e+002, 4.789223e+005
2.961552e+002, 4.786188e+005
2.962069e+002, 4.789860e+005
2.962586e+002, 4.793948e+005
2.963104e+002, 4.787056e+005
2.963621e+002, 4.788008e+005
2.964138e+002, 4.790399e+005
2.964655e+002, 4.792930e+005
2.965172e+002, 4.791445e+005
2.965690e+002, 4.785695e+005
2.966207e+002, 4.786024e+005
2.966724e+002, 4.785935e+005
2.967242e+002, 4.781963e+005
2.967759e+002, 4.781311e+005
2.968276e+002, 4.779506e+005
2.968793e+002, 4.775292e+005
2.969310e+002, 4.766095e+005
2.969828e+002, 4.759393e+005
2.970345e+002, 4.761662e+005
2.970862e+002, 4.763267e+005
2.971379e+002, 4.762690e+005
2.971897e+002, 4.758021e+005
2.972414e+002, 4.755668e+005
2.972931e+002, 4.751023e+005
2.973448e+002, 4.752582e+005
2.973965e+002, 4.748610e+005
2.974483e+002, 4.742617e+005
2.975000e+002, 4.736875e+005
2.975517e+002, 4.732283e+005
2.976035e+002, 4.733167e+005
2.976552e+002, 4.732910e+005
2.977069e+002, 4.728708e+005
2.977586e+002, 4.724323e+005
2.978104e+002, 4.721505e+005
2.978621e+002, 4.718019e+005
2.979138e+002, 4.712983e+005
2.979655e+002, 4.709060e+005
2.980172e+002, 4.706719e+005
2.980690e+002, 4.704981e+005
2.981207e+002, 4.703713e+005
2.981724e+002, 4.695676e+005
2.982242e+002, 4.692528e+005
2.982759e+002, 4.686679e+005
2.983276e+002, 4.680865e+005
2.983793e+002, 4.674681e+005
2.984310e+002, 4.667273e+005
2.984828e+002, 4.666375e+005
2.985345e+002, 4.658109e+005
2.985862e+002, 4.658012e+005
2.986379e+002, 4.651717e+005
2.986897e+002, 4.641980e+005
2.987414e+002, 4.637008e+005
2.987931e+002, 4.634663e+005
2.988448e+002, 4.633936e+005
2.988965e+002, 4.627783e+005
2.989483e+002, 4.622971e+005
2.990000e+002, 4.615134e+005
2.990517e+002, 4.604971e+005
2.991035e+002, 4.598485e+005
2.991552e+002, 4.594132e+005
2.992069e+002, 4.584393e+005
2.992586e+002, 4.577832e+005
2.993104e+002, 4.570164e+005
2.993621e+002, 4.567030e+005
2.994138e+002, 4.558878e+005
2.994655e+002, 4.552301e+005
2.995172e+002, 4.543209e+005
2.995690e+002, 4.538215e+005
2.996207e+002, 4.534919e+005
2.996724e+002, 4.535482e+005
2.997242e+002, 4.529037e+005
2.997759e+002, 4.527658e+005
2.998276e+002, 4.522240e+005
2.998793e+002, 4.508559e+005
2.999310e+002, 4.502998e+005
2.999828e+002, 4.500522e+005
3.000345e+002, 4.488354e+005
3.000862e+002, 4.478390e+005
3.001379e+002, 4.471783e+005
3.001897e+002, 4.470034e+005
3.002414e+002, 4.472949e+005
3.002931e+002, 4.465833e+005
3.003448e+002, 4.454833e+005
3.003965e+002, 4.447606e+005
3.004483e+002, 4.443689e+005
3.005000e+002, 4.430995e+005
3.005517e+002, 4.428676e+005
3.006035e+002, 4.422030e+005
3.006552e+002, 4.420898e+005
3.007069e+002, 4.414243e+005
3.007586e+002, 4.406676e+005
3.008104e+002, 4.391524e+005
3.008621e+002, 4.383975e+005
3.009138e+002, 4.378916e+005
3.009655e+002, 4.380922e+005
3.010172e+002, 4.374534e+005
3.010690e+002, 4.366776e+005
3.011207e+002, 4.358744e+005
3.011724e+002, 4.349177e+005
3.012242e+002, 4.336995e+005
3.012759e+002, 4.324870e+005
3.013276e+002, 4.321036e+005
3.013793e+002, 4.314253e+005
3.014310e+002, 4.298170e+005
3.014828e+002, 4.294067e+005
3.015345e+002, 4.295798e+005
3.015862e+002, 4.289047e+005
3.016379e+002, 4.281825e+005
3.016897e+002, 4.270789e+005
3.017414e+002, 4.259440e+005
3.017931e+002, 4.249538e+005
3.018448e+002, 4.244223e+005
3.018965e+002, 4.236412e+005
3.019483e+002, 4.228843e+005
3.020000e+002, 4.220481e+005
3.020517e+002, 4.208516e+005
3.021035e+002, 4.203690e+005
3.021552e+002, 4.201845e+005
3.022069e+002, 4.194265e+005
3.022586e+002, 4.182088e+005
3.023104e+002, 4.173672e+005
3.023621e+002, 4.163939e+005
3.024138e+002, 4.156296e+005
3.024655e+002, 4.149890e+005
3.025172e+002, 4.144913e+005
3.025690e+002, 4.140848e+005
3.026207e+002, 4.138500e+005
3.026724e+002, 4.125591e+005
3.027242e+002, 4.108697e+005
3.027759e+002, 4.102011e+005
3.028276e+002, 4.100304e+005
3.028793e+002, 4.092131e+005
3.029310e+002, 4.084113e+005
3.029828e+002, 4.065631e+005
3.030345e+002, 4.050215e+005
3.030862e+002, 4.041605e+005
3.031379e+002, 4.039306e+005
3.031897e+002, 4.032325e+005
3.032414e+002, 4.025996e+005
3.032931e+002, 4.013611e+005
3.033448e+002, 4.005604e+005
3.033965e+002, 3.995946e+005
3.034483e+002, 3.990378e+005
3.035000e+002, 3.980232e+005
3.035517e+002, 3.973311e+005
3.036035e+002, 3.967175e+005
3.036552e+002, 3.957243e+005
3.037069e+002, 3.950849e+005
3.037586e+002, 3.941686e+005
3.038104e+002, 3.932302e+005
3.038621e+002, 3.916342e+005
3.039138e+002, 3.908189e+005
3.039655e+002, 3.903924e+005
3.040172e+002, 3.890030e+005
3.040690e+002, 3.877293e+005
3.041207e+002, 3.865872e+005
3.041724e+002, 3.856840e+005
3.042242e+002, 3.842461e+005
3.042759e+002, 3.836656e+005
3.043276e+002, 3.829076e+005
3.043793e+002, 3.818640e+005
3.044310e+002, 3.811352e+005
3.044828e+002, 3.803957e+005
3.045345e+002, 3.789936e+005
3.045862e+002, 3.778575e+005
3.046379e+002, 3.767597e+005
3.046897e+002, 3.756919e+005
3.047414e+002, 3.747790e+005
3.047931e+002, 3.741743e+005
3.048448e+002, 3.731872e+005
3.048965e+002, 3.719121e+005
3.049483e+002, 3.708278e+005
3.050000e+002, 3.700555e+005
3.050517e+002, 3.689668e+005
3.051035e+002, 3.678984e+005
3.051552e+002, 3.668724e+005
3.052069e+002, 3.657253e+005
3.052586e+002, 3.646837e+005
3.053104e+002, 3.640863e+005
3.053621e+002, 3.630228e+005
3.054138e+002, 3.621107e+005
3.054655e+002, 3.613435e+005
3.055172e+002, 3.605946e+005
3.055690e+002, 3.591623e+005
3.056207e+002, 3.576830e+005
3.056724e+002, 3.568403e+005
3.057242e+002, 3.562968e+005
3.057759e+002, 3.551578e+005
3.058276e+002, 3.537241e+005
3.058793e+002, 3.525510e+005
3.059310e+002, 3.521874e+005
3.059828e+002, 3.519568e+005
3.060345e+002, 3.508642e+005
3.060862e+002, 3.489899e+005
3.061379e+002, 3.481742e+005
3.061897e+002, 3.480356e+005
3.062414e+002, 3.463615e+005
3.062931e+002, 3.444638e+005
3.063448e+002, 3.433362e+005
3.063965e+002, 3.424979e+005
3.064483e+002, 3.414857e+005
3.065000e+002, 3.402608e+005
3.065517e+002, 3.391116e+005
3.066035e+002, 3.384144e+005
3.066552e+002, 3.369671e+005
3.067069e+002, 3.358989e+005
3.067586e+002, 3.357139e+005
3.068104e+002, 3.354138e+005
3.068621e+002, 3.340543e+005
3.069138e+002, 3.326610e+005
3.069655e+002, 3.318534e+005
3.070172e+002, 3.304183e+005
3.070690e+002, 3.292063e+005
3.071207e+002, 3.287660e+005
3.071724e+002, 3.284735e+005
3.072242e+002, 3.274742e+005
3.072759e+002, 3.263795e+005
3.073276e+002, 3.249309e+005
3.073793e+002, 3.236005e+005
3.074310e+002, 3.224348e+005
3.074828e+002, 3.220266e+005
3.075345e+002, 3.217027e+005
3.075862e+002, 3.208186e+005
3.076379e+002, 3.199201e+005
3.076897e+002, 3.188058e+005
3.077414e+002, 3.181406e+005
3.077931e+002, 3.180294e+005
3.078448e+002, 3.168147e+005
3.078965e+002, 3.150494e+005
3.079483e+002, 3.143446e+005
3.080000e+002, 3.134874e+005
3.080517e+002, 3.124383e+005
3.081035e+002, 3.118291e+005
3.081552e+002, 3.115189e+005
3.082069e+002, 3.110676e+005
3.082586e+002, 3.101383e+005
3.083104e+002, 3.093423e+005
3.083621e+002, 3.085183e+005
3.084138e+002, 3.074799e+005
3.084655e+002, 3.062651e+005
3.085172e+002, 3.053589e+005
3.085690e+002, 3.046075e+005
3.086207e+002, 3.042835e+005
3.086724e+002, 3.034579e+005
3.087242e+002, 3.029219e+005
3.087759e+002, 3.021294e+005
3.088276e+002, 3.019762e+005
3.088793e+002, 3.019238e+005
3.089310e+002, 3.009828e+005
3.089828e+002, 2.998350e+005
3.090345e+002, 2.986554e+005
3.090862e+002, 2.977614e+005
3.091379e+002, 2.972538e+005
3.091897e+002, 2.968317e+005
3.092414e+002, 2.963599e+005
3.092931e+002, 2.951883e+005
3.093448e+002, 2.941351e+005
3.093965e+002, 2.935686e+005
3.094483e+002, 2.935738e+005
3.095000e+002, 2.927493e+005
3.095517e+002, 2.919326e+005
3.096035e+002, 2.914569e+005
3.096552e+002, 2.910756e+005
3.097069e+002, 2.909162e+005
3.097586e+002, 2.899734e+005
3.098104e+002, 2.893426e+005
3.098621e+002, 2.887263e+005
3.099138e+002, 2.880608e+005
3.099655e+002, 2.874847e+005
3.100172e+002, 2.867193e+005
3.100690e+002, 2.857564e+005
3.101207e+002, 2.854141e+005
3.101724e+002, 2.858044e+005
3.102242e+002, 2.852848e+005
3.102759e+002, 2.838745e+005
3.103276e+002, 2.828378e+005
3.103793e+002, 2.825056e+005
3.104310e+002, 2.823346e+005
3.104828e+002, 2.817121e+005
3.105345e+002, 2.815593e+005
3.105862e+002, 2.817152e+005
3.106379e+002, 2.811386e+005
3.106897e+002, 2.805629e+005
3.107414e+002, 2.800906e+005
3.107931e+002, 2.797855e+005
3.108448e+002, 2.791545e+005
3.108965e+002, 2.784500e+005
3.109483e+002, 2.776002e+005
3.110000e+002, 2.767483e+005
3.110517e+002, 2.766209e+005
3.111035e+002, 2.765874e+005
3.111552e+002, 2.764972e+005
3.112069e+002, 2.760949e+005
3.112586e+002, 2.756686e+005
3.113104e+002, 2.749871e+005
3.113621e+002, 2.743526e+005
3.114138e+002, 2.743857e+005
3.114655e+002, 2.742158e+005
3.115172e+002, 2.739315e+005
3.115690e+002, 2.737209e+005
3.116207e+002, 2.729753e+005
3.116724e+002, 2.721695e+005
3.117242e+002, 2.723692e+005
3.117759e+002, 2.727878e+005
3.118276e+002, 2.722192e+005
3.118793e+002, 2.717110e+005
3.119310e+002, 2.718274e+005
3.119828e+002, 2.708755e+005
3.120345e+002, 2.704899e+005
3.120862e+002, 2.700353e+005
3.121379e+002, 2.694740e+005
3.121897e+002, 2.696748e+005
3.122414e+002, 2.698183e+005
3.122931e+002, 2.694008e+005
3.123448e+002, 2.686556e+005
3.123965e+002, 2.678593e+005
3.124483e+002, 2.676066e+005
3.125000e+002, 2.671869e+005
3.125517e+002, 2.668028e+005
3.126035e+002, 2.665857e+005
3.126552e+002, 2.661064e+005
3.127069e+002, 2.659654e+005
3.127586e+002, 2.665073e+005
3.128104e+002, 2.670101e+005
3.128621e+002, 2.664417e+005
3.129138e+002, 2.658151e+005
3.129655e+002, 2.653053e+005
3.130172e+002, 2.656477e+005
3.130690e+002, 2.646768e+005
3.131207e+002, 2.642902e+005
3.131724e+002, 2.640862e+005
3.132242e+002, 2.635451e+005
3.132759e+002, 2.632358e+005
3.133276e+002, 2.628688e+005
3.133793e+002, 2.632574e+005
3.134310e+002, 2.636308e+005
3.134828e+002, 2.635707e+005
3.135345e+002, 2.633095e+005
3.135862e+002, 2.633859e+005
3.136379e+002, 2.635109e+005
3.136897e+002, 2.625245e+005
3.137414e+002, 2.617278e+005
3.137931e+002, 2.615873e+005
3.138448e+002, 2.613613e+005
3.138965e+002, 2.617492e+005
3.139483e+002, 2.618523e+005
3.140000e+002, 2.621310e+005
3.140517e+002, 2.619809e+005
3.141035e+002, 2.614104e+005
3.141552e+002, 2.611624e+005
3.142069e+002, 2.613422e+005
3.142586e+002, 2.606697e+005
3.143104e+002, 2.603195e+005
3.143621e+002, 2.598223e+005
3.144138e+002, 2.596817e+005
3.144655e+002, 2.596170e+005
3.145172e+002, 2.595361e+005
3.145690e+002, 2.590307e+005
3.146207e+002, 2.591258e+005
3.146724e+002, 2.590963e+005
3.147242e+002, 2.586844e+005
3.147759e+002, 2.579351e+005
3.148276e+002, 2.576532e+005
3.148793e+002, 2.574764e+005
3.149310e+002, 2.578814e+005
3.149828e+002, 2.577724e+005
3.150345e+002, 2.576135e+005
3.150862e+002, 2.576430e+005
3.151379e+002, 2.573117e+005
3.151897e+002, 2.569663e+005
3.152414e+002, 2.570720e+005
3.152931e+002, 2.566032e+005
3.153448e+002, 2.561104e+005
3.153965e+002, 2.563176e+005
3.154483e+002, 2.561020e+005
3.155000e+002, 2.556523e+005
3.155517e+002, 2.552432e+005
3.156035e+002, 2.553447e+005
3.156552e+002, 2.560157e+005
3.157069e+002, 2.559110e+005
3.157586e+002, 2.554447e+005
3.158104e+002, 2.552109e+005
3.158621e+002, 2.550942e+005
3.159138e+002, 2.546088e+005
3.159655e+002, 2.546341e+005
3.160172e+002, 2.543424e+005
3.160690e+002, 2.535328e+005
3.161207e+002, 2.532791e+005
3.161724e+002, 2.534039e+005
3.162242e+002, 2.533777e+005
3.162759e+002, 2.530673e+005
3.163276e+002, 2.528687e+005
3.163793e+002, 2.532511e+005
3.164310e+002, 2.538945e+005
3.164828e+002, 2.539548e+005
3.165345e+002, 2.538305e+005
3.165862e+002, 2.533621e+005
3.166379e+002, 2.533643e+005
3.166897e+002, 2.533348e+005
3.167414e+002, 2.535354e+005
3.167931e+002, 2.532130e+005
3.168448e+002, 2.527866e+005
3.168965e+002, 2.530001e+005
3.169483e+002, 2.530262e+005
3.170000e+002, 2.527608e+005
3.170517e+002, 2.528255e+005
3.171035e+002, 2.526008e+005
3.171552e+002, 2.524771e+005
3.172069e+002, 2.524325e+005
3.172586e+002, 2.522536e+005
3.173104e+002, 2.521240e+005
3.173621e+002, 2.520860e+005
3.174138e+002, 2.519987e+005
3.174655e+002, 2.514704e+005
3.175172e+002, 2.516524e+005
3.175690e+002, 2.513965e+005
3.176207e+002, 2.514371e+005
3.176724e+002, 2.515937e+005
3.177242e+002, 2.515733e+005
3.177759e+002, 2.512685e+005
3.178276e+002, 2.512490e+005
3.178793e+002, 2.510404e+005
3.179310e+002, 2.508530e+005
3.179828e+002, 2.503784e+005
3.180345e+002, 2.504329e+005
3.180862e+002, 2.505913e+005
3.181379e+002, 2.507152e+005
3.181897e+002, 2.511175e+005
3.182414e+002, 2.510715e+005
3.182931e+002, 2.509166e+005
3.183448e+002, 2.507568e+005
3.183965e+002, 2.504527e+005
3.184483e+002, 2.498262e+005
3.185000e+002, 2.495215e+005
3.185517e+002, 2.498143e+005
3.186035e+002, 2.502670e+005
3.186552e+002, 2.504186e+005
3.187069e+002, 2.502798e+005
3.187586e+002, 2.500148e+005
3.188104e+002, 2.496795e+005
3.188621e+002, 2.496186e+005
3.189138e+002, 2.496526e+005
3.189655e+002, 2.497657e+005
3.190172e+002, 2.500869e+005
3.190690e+002, 2.500804e+005
3.191207e+002, 2.497246e+005
3.191724e+002, 2.493325e+005
3.192242e+002, 2.488765e+005
3.192759e+002, 2.490850e+005
3.193276e+002, 2.493108e+005
3.193793e+002, 2.490956e+005
3.194310e+002, 2.490527e+005
3.194828e+002, 2.490700e+005
3.195345e+002, 2.487878e+005
3.195862e+002, 2.487156e+005
3.196379e+002, 2.486786e+005
3.196897e+002, 2.488228e+005
3.197414e+002, 2.488219e+005
3.197931e+002, 2.486329e+005
3.198448e+002, 2.489085e+005
3.198965e+002, 2.487163e+005
3.199483e+002, 2.490038e+005
3.200000e+002, 2.495350e+005
3.200517e+002, 2.493680e+005
3.201035e+002, 2.491772e+005
3.201552e+002, 2.490604e+005
3.202069e+002, 2.486965e+005
3.202586e+002, 2.483904e+005
3.203104e+002, 2.487044e+005
3.203621e+002, 2.492103e+005
3.204138e+002, 2.489055e+005
3.204655e+002, 2.486728e+005
3.205172e+002, 2.486374e+005
3.205690e+002, 2.485725e+005
3.206207e+002, 2.484270e+005
3.206724e+002, 2.481243e+005
3.207242e+002, 2.481595e+005
3.207759e+002, 2.484963e+005
3.208276e+002, 2.485539e+005
3.208793e+002, 2.481147e+005
3.209310e+002, 2.480629e+005
3.209828e+002, 2.479917e+005
3.210345e+002, 2.476151e+005
3.210862e+002, 2.478959e+005
3.211379e+002, 2.482760e+005
3.211897e+002, 2.479657e+005
3.212414e+002, 2.475891e+005
3.212931e+002, 2.481834e+005
3.213448e+002, 2.479632e+005
3.213965e+002, 2.473171e+005
3.214483e+002, 2.474616e+005
3.215000e+002, 2.474784e+005
3.215517e+002, 2.476455e+005
3.216035e+002, 2.478545e+005
3.216552e+002, 2.476306e+005
3.217069e+002, 2.475533e+005
3.217586e+002, 2.476632e+005
3.218104e+002, 2.479133e+005
3.218621e+002, 2.473957e+005
3.219138e+002, 2.473168e+005
3.219655e+002, 2.473479e+005
3.220172e+002, 2.472253e+005
3.220690e+002, 2.474850e+005
3.221207e+002, 2.475228e+005
3.221724e+002, 2.475054e+005
3.222242e+002, 2.472740e+005
3.222759e+002, 2.468857e+005
3.223276e+002, 2.471272e+005
3.223793e+002, 2.474190e+005
3.224310e+002, 2.475135e+005
3.224828e+002, 2.465750e+005
3.225345e+002, 2.466376e+005
3.225862e+002, 2.467023e+005
3.226379e+002, 2.468191e+005
3.226897e+002, 2.471423e+005
3.227414e+002, 2.477007e+005
3.227931e+002, 2.469067e+005
3.228448e+002, 2.457970e+005
3.228965e+002, 2.459289e+005
3.229483e+002, 2.464977e+005
3.230000e+002, 2.464539e+005
3.230517e+002, 2.461545e+005
3.231035e+002, 2.462778e+005
3.231552e+002, 2.466603e+005
3.232069e+002, 2.465072e+005
3.232586e+002, 2.459103e+005
3.233104e+002, 2.459385e+005
3.233621e+002, 2.460358e+005
3.234138e+002, 2.455077e+005
3.234655e+002, 2.454389e+005
3.235172e+002, 2.452017e+005
3.235690e+002, 2.450460e+005
3.236207e+002, 2.453682e+005
3.236724e+002, 2.459472e+005
3.237242e+002, 2.458052e+005
3.237759e+002, 2.458136e+005
3.238276e+002, 2.460192e+005
3.238793e+002, 2.459575e+005
3.239310e+002, 2.455926e+005
3.239828e+002, 2.453385e+005
3.240345e+002, 2.452666e+005
3.240862e+002, 2.456883e+005
3.241379e+002, 2.454590e+005
3.241897e+002, 2.452568e+005
3.242414e+002, 2.452294e+005
3.242931e+002, 2.453708e+005
3.243448e+002, 2.447490e+005
3.243965e+002, 2.443272e+005
3.244483e+002, 2.441911e+005
3.245000e+002, 2.437717e+005
3.245517e+002, 2.434928e+005
3.246035e+002, 2.435648e+005
3.246552e+002, 2.437509e+005
3.247069e+002, 2.442602e+005
3.247586e+002, 2.438130e+005
3.248104e+002, 2.429087e+005
3.248621e+002, 2.431694e+005
3.249138e+002, 2.434402e+005
3.249655e+002, 2.431745e+005
3.250172e+002, 2.429968e+005
3.250690e+002, 2.430983e+005
3.251207e+002, 2.432543e+005
3.251724e+002, 2.427100e+005
3.252242e+002, 2.423791e+005
3.252759e+002, 2.429235e+005
3.253276e+002, 2.429954e+005
3.253793e+002, 2.427343e+005
3.254310e+002, 2.427272e+005
3.254828e+002, 2.424219e+005
3.255345e+002, 2.422203e+005
3.255862e+002, 2.420952e+005
3.256379e+002, 2.425835e+005
3.256897e+002, 2.422891e+005
3.257414e+002, 2.416425e+005
3.257931e+002, 2.419206e+005
3.258448e+002, 2.421575e+005
3.258965e+002, 2.421159e+005
3.259483e+002, 2.412881e+005
3.260000e+002, 2.407003e+005
3.260517e+002, 2.407429e+005
3.261035e+002, 2.415426e+005
3.261552e+002, 2.414004e+005
3.262069e+002, 2.415480e+005
3.262586e+002, 2.420187e+005
3.263104e+002, 2.413622e+005
3.263621e+002, 2.406597e+005
3.264138e+002, 2.405473e+005
3.264655e+002, 2.406256e+005
3.265172e+002, 2.407203e+005
3.265690e+002, 2.403108e+005
3.266207e+002, 2.398566e+005
3.266724e+002, 2.395352e+005
3.267242e+002, 2.397283e+005
3.267759e+002, 2.395681e+005
3.268276e+002, 2.396297e+005
3.268793e+002, 2.397891e+005
3.269310e+002, 2.395987e+005
3.269828e+002, 2.387463e+005
3.270345e+002, 2.382663e+005
3.270862e+002, 2.385478e+005
3.271379e+002, 2.386462e+005
3.271897e+002, 2.388487e+005
3.272414e+002, 2.386681e+005
3.272931e+002, 2.388178e+005
3.273448e+002, 2.387723e+005
3.273965e+002, 2.382766e+005
3.274483e+002, 2.376862e+005
3.275000e+002, 2.375131e+005
3.275517e+002, 2.374428e+005
3.276035e+002, 2.381405e+005
3.276552e+002, 2.382880e+005
3.277069e+002, 2.378970e+005
3.277586e+002, 2.374125e+005
3.278104e+002, 2.378091e+005
3.278621e+002, 2.373833e+005
3.279138e+002, 2.370583e+005
3.279655e+002, 2.369817e+005
3.280172e+002, 2.369170e+005
3.280690e+002, 2.366703e+005
3.281207e+002, 2.360012e+005
3.281724e+002, 2.359840e+005
3.282242e+002, 2.363433e+005
3.282759e+002, 2.361878e+005
3.283276e+002, 2.357253e+005
3.283793e+002, 2.353986e+005
3.284310e+002, 2.350398e+005
3.284828e+002, 2.349664e+005
3.285345e+002, 2.352302e+005
3.285862e+002, 2.351939e+005
3.286379e+002, 2.348980e+005
3.286897e+002, 2.340363e+005
3.287414e+002, 2.342992e+005
3.287931e+002, 2.347834e+005
3.288448e+002, 2.345747e+005
3.288965e+002, 2.340881e+005
3.289483e+002, 2.344853e+005
3.290000e+002, 2.343556e+005
3.290517e+002, 2.339445e+005
3.291035e+002, 2.337478e+005
3.291552e+002, 2.335202e+005
3.292069e+002, 2.333338e+005
3.292586e+002, 2.330236e+005
3.293104e+002, 2.329564e+005
3.293621e+002, 2.328851e+005
3.294138e+002, 2.325403e+005
3.294655e+002, 2.324041e+005
3.295172e+002, 2.326037e+005
3.295690e+002, 2.322527e+005
3.296207e+002, 2.324111e+005
3.296724e+002, 2.325023e+005
3.297242e+002, 2.324199e+005
3.297759e+002, 2.316241e+005
3.298276e+002, 2.310547e+005
3.298793e+002, 2.314330e+005
3.299310e+002, 2.313026e+005
3.299828e+002, 2.306121e+005
3.300345e+002, 2.302101e+005
3.300862e+002, 2.305217e+005
3.301379e+002, 2.307033e+005
3.301897e+002, 2.301569e+005
3.302414e+002, 2.296838e+005
3.302931e+002, 2.295474e+005
3.303448e+002, 2.292942e+005
3.303965e+002, 2.288848e+005
3.304483e+002, 2.285189e+005
3.305000e+002, 2.287497e+005
3.305517e+002, 2.289755e+005
3.306035e+002, 2.292445e+005
3.306552e+002, 2.293160e+005
3.307069e+002, 2.288197e+005
3.307586e+002, 2.282133e+005
3.308104e+002, 2.275474e+005
3.308621e+002, 2.271561e+005
3.309138e+002, 2.271446e+005
3.309655e+002, 2.270043e+005
3.310172e+002, 2.271304e+005
3.310690e+002, 2.271306e+005
3.311207e+002, 2.267979e+005
3.311724e+002, 2.264574e+005
3.312242e+002, 2.263972e+005
3.312759e+002, 2.263977e+005
3.313276e+002, 2.262421e+005
3.313793e+002, 2.259526e+005
3.314310e+002, 2.255164e+005
3.314828e+002, 2.254032e+005
3.315345e+002, 2.254162e+005
3.315862e+002, 2.252615e+005
3.316379e+002, 2.249123e+005
3.316897e+002, 2.247287e+005
3.317414e+002, 2.247869e+005
3.317931e+002, 2.248066e+005
3.318448e+002, 2.247828e+005
3.318965e+002, 2.243679e+005
3.319483e+002, 2.241525e+005
3.320000e+002, 2.241987e+005
3.320517e+002, 2.238637e+005
3.321035e+002, 2.238010e+005
3.321552e+002, 2.239900e+005
3.322069e+002, 2.235883e+005
3.322586e+002, 2.233126e+005
3.323104e+002, 2.235592e+005
3.323621e+002, 2.235520e+005
3.324138e+002, 2.233119e+005
3.324655e+002, 2.234132e+005
3.325172e+002, 2.228095e+005
3.325690e+002, 2.224220e+005
3.326207e+002, 2.222011e+005
3.326724e+002, 2.215275e+005
3.327242e+002, 2.207550e+005
3.327759e+002, 2.211670e+005
3.328276e+002, 2.211980e+005
3.328793e+002, 2.210080e+005
3.329310e+002, 2.202874e+005
3.329828e+002, 2.198862e+005
3.330345e+002, 2.196878e+005
3.330862e+002, 2.196201e+005
3.331379e+002, 2.196593e+005
3.331897e+002, 2.194557e+005
3.332414e+002, 2.191161e+005
3.332931e+002, 2.184261e+005
3.333448e+002, 2.181967e+005
3.333965e+002, 2.181209e+005
3.334483e+002, 2.179826e+005
3.335000e+002, 2.177766e+005
3.335517e+002, 2.175550e+005
3.336035e+002, 2.177192e+005
3.336552e+002, 2.177613e+005
3.337069e+002, 2.176534e+005
3.337586e+002, 2.174106e+005
3.338104e+002, 2.170034e+005
3.338621e+002, 2.173048e+005
3.339138e+002, 2.174369e+005
3.339655e+002, 2.167197e+005
3.340172e+002, 2.164963e+005
3.340690e+002, 2.165411e+005
3.341207e+002, 2.165739e+005
3.341724e+002, 2.166531e+005
3.342242e+002, 2.162298e+005
3.342759e+002, 2.156279e+005
3.343276e+002, 2.150751e+005
3.343793e+002, 2.150551e+005
3.344310e+002, 2.151883e+005
3.344828e+002, 2.150274e+005
3.345345e+002, 2.147743e+005
3.345862e+002, 2.143206e+005
3.346379e+002, 2.143480e+005
3.346897e+002, 2.146807e+005
3.347414e+002, 2.144145e+005
3.347931e+002, 2.142386e+005
3.348448e+002, 2.142722e+005
3.348965e+002, 2.139745e+005
3.349483e+002, 2.136156e+005
3.350000e+002, 2.133970e+005
3.350517e+002, 2.128530e+005
3.351035e+002, 2.126092e+005
3.351552e+002, 2.124471e+005
3.352069e+002, 2.125592e+005
3.352586e+002, 2.123861e+005
3.353104e+002, 2.123818e+005
3.353621e+002, 2.119867e+005
3.354138e+002, 2.122544e+005
3.354655e+002, 2.121953e+005
3.355172e+002, 2.123981e+005
3.355690e+002, 2.122253e+005
3.356207e+002, 2.118112e+005
3.356724e+002, 2.113394e+005
3.357242e+002, 2.112802e+005
3.357759e+002, 2.110655e+005
3.358276e+002, 2.105065e+005
3.358793e+002, 2.102602e+005
3.359310e+002, 2.099171e+005
3.359828e+002, 2.097328e+005
3.360345e+002, 2.095087e+005
3.360862e+002, 2.094516e+005
3.361379e+002, 2.091744e+005
3.361897e+002, 2.090828e+005
3.362414e+002, 2.087350e+005
3.362931e+002, 2.086506e+005
3.363448e+002, 2.086300e+005
3.363965e+002, 2.086929e+005
3.364483e+002, 2.085931e+005
3.365000e+002, 2.085952e+005
3.365517e+002, 2.081667e+005
3.366035e+002, 2.078692e+005
3.366552e+002, 2.081997e+005
3.367069e+002, 2.080986e+005
3.367586e+002, 2.076843e+005
3.368104e+002, 2.076581e+005
3.368621e+002, 2.074521e+005
3.369138e+002, 2.073523e+005
3.369655e+002, 2.071154e+005
3.370172e+002, 2.068324e+005
3.370690e+002, 2.065800e+005
3.371207e+002, 2.065605e+005
3.371724e+002, 2.064969e+005
3.372242e+002, 2.064403e+005
3.372759e+002, 2.064320e+005
3.373276e+002, 2.061889e+005
3.373793e+002, 2.062373e+005
3.374310e+002, 2.059291e+005
3.374828e+002, 2.056230e+005
3.375345e+002, 2.050936e+005
3.375862e+002, 2.049654e+005
3.376379e+002, 2.052908e+005
3.376897e+002, 2.053713e+005
3.377414e+002, 2.052057e+005
3.377931e+002, 2.045147e+005
3.378448e+002, 2.036539e+005
3.378965e+002, 2.034996e+005
3.379483e+002, 2.036940e+005
3.380000e+002, 2.037900e+005
3.380517e+002, 2.038415e+005
3.381035e+002, 2.037591e+005
3.381552e+002, 2.030872e+005
3.382069e+002, 2.030798e+005
3.382586e+002, 2.032946e+005
3.383104e+002, 2.031243e+005
3.383621e+002, 2.026302e+005
3.384138e+002, 2.023093e+005
3.384655e+002, 2.022015e+005
3.385172e+002, 2.026642e+005
3.385690e+002, 2.023852e+005
3.386207e+002, 2.023121e+005
3.386724e+002, 2.026644e+005
3.387242e+002, 2.022975e+005
3.387759e+002, 2.020713e+005
3.388276e+002, 2.021154e+005
3.388793e+002, 2.016828e+005
3.389310e+002, 2.013853e+005
3.389828e+002, 2.015867e+005
3.390345e+002, 2.010639e+005
3.390862e+002, 2.006970e+005
3.391379e+002, 2.001929e+005
3.391897e+002, 1.999425e+005
3.392414e+002, 2.000988e+005
3.392931e+002, 1.999060e+005
3.393448e+002, 1.998083e+005
3.393965e+002, 2.001281e+005
3.394483e+002, 2.004828e+005
3.395000e+002, 2.001214e+005
3.395517e+002, 2.000313e+005
3.396035e+002, 1.997338e+005
3.396552e+002, 1.996980e+005
3.397069e+002, 1.994789e+005
3.397586e+002, 1.993654e+005
3.398104e+002, 1.990328e+005
3.398621e+002, 1.986541e+005
3.399138e+002, 1.986319e+005
3.399655e+002, 1.981476e+005
3.400172e+002, 1.980364e+005
3.400690e+002, 1.983095e+005
3.401207e+002, 1.982770e+005
3.401724e+002, 1.979597e+005
3.402242e+002, 1.979893e+005
3.402759e+002, 1.975205e+005
3.403276e+002, 1.973126e+005
3.403793e+002, 1.975668e+005
3.404310e+002, 1.975805e+005
3.404828e+002, 1.971695e+005
3.405345e+002, 1.968660e+005
3.405862e+002, 1.968268e+005
3.406379e+002, 1.968778e+005
3.406897e+002, 1.971219e+005
3.407414e+002, 1.971372e+005
3.407931e+002, 1.970137e+005
3.408448e+002, 1.969765e+005
3.408965e+002, 1.969868e+005
3.409483e+002, 1.967061e+005
3.410000e+002, 1.966271e+005
3.410517e+002, 1.962008e+005
3.411035e+002, 1.957306e+005
3.411552e+002, 1.954430e+005
3.412069e+002, 1.950617e+005
3.412586e+002, 1.947231e+005
3.413104e+002, 1.947716e+005
3.413621e+002, 1.949314e+005
3.414138e+002, 1.948673e+005
3.414655e+002, 1.951804e+005
3.415172e+002, 1.952310e+005
3.415690e+002, 1.950583e+005
3.416207e+002, 1.949705e+005
3.416724e+002, 1.950349e+005
3.417242e+002, 1.946706e+005
3.417759e+002, 1.944694e+005
3.418276e+002, 1.937814e+005
3.418793e+002, 1.933411e+005
3.419310e+002, 1.932789e+005
3.419828e+002, 1.935656e+005
3.420345e+002, 1.933039e+005
3.420862e+002, 1.928653e+005
3.421379e+002, 1.930232e+005
3.421897e+002, 1.930823e+005
3.422414e+002, 1.933296e+005
3.422931e+002, 1.934519e+005
3.423448e+002, 1.934160e+005
3.423965e+002, 1.929246e+005
3.424483e+002, 1.928364e+005
3.425000e+002, 1.926980e+005
3.425517e+002, 1.930405e+005
3.426035e+002, 1.934535e+005
3.426552e+002, 1.930611e+005
3.427069e+002, 1.926909e+005
3.427586e+002, 1.919133e+005
3.428104e+002, 1.919285e+005
3.428621e+002, 1.924696e+005
3.429138e+002, 1.918701e+005
3.429655e+002, 1.914402e+005
3.430172e+002, 1.914000e+005
3.430690e+002, 1.915305e+005
3.431207e+002, 1.915773e+005
3.431724e+002, 1.914930e+005
3.432242e+002, 1.913128e+005
3.432759e+002, 1.911012e+005
3.433276e+002, 1.911952e+005
3.433793e+002, 1.908755e+005
3.434310e+002, 1.903832e+005
3.434828e+002, 1.907690e+005
3.435345e+002, 1.909457e+005
3.435862e+002, 1.905374e+005
3.436379e+002, 1.902540e+005
3.436897e+002, 1.900636e+005
3.437414e+002, 1.899136e+005
3.437931e+002, 1.897606e+005
3.438448e+002, 1.896899e+005
3.438965e+002, 1.896379e+005
3.439483e+002, 1.897010e+005
3.440000e+002, 1.897053e+005
3.440517e+002, 1.897817e+005
3.441035e+002, 1.898373e+005
3.441552e+002, 1.899478e+005
3.442069e+002, 1.893806e+005
3.442586e+002, 1.891250e+005
3.443104e+002, 1.890813e+005
3.443621e+002, 1.888349e+005
3.444138e+002, 1.889591e+005
3.444655e+002, 1.887772e+005
3.445172e+002, 1.883436e+005
3.445690e+002, 1.882595e+005
3.446207e+002, 1.886196e+005
3.446724e+002, 1.885410e+005
3.447242e+002, 1.882257e+005
3.447759e+002, 1.881893e+005
3.448276e+002, 1.880528e+005
3.448793e+002, 1.881470e+005
3.449310e+002, 1.880745e+005
3.449828e+002, 1.880274e+005
3.450345e+002, 1.883067e+005
3.450862e+002, 1.880816e+005
3.451379e+002, 1.875774e+005
3.451897e+002, 1.871328e+005
3.452414e+002, 1.871371e+005
3.452931e+002, 1.871519e+005
3.453448e+002, 1.874900e+005
3.453965e+002, 1.877327e+005
3.454483e+002, 1.869783e+005
3.455000e+002, 1.866358e+005
3.455517e+002, 1.863002e+005
3.456035e+002, 1.861980e+005
3.456552e+002, 1.860245e+005
3.457069e+002, 1.856478e+005
3.457586e+002, 1.854227e+005
3.458104e+002, 1.860635e+005
3.458621e+002, 1.862042e+005
3.459138e+002, 1.859392e+005
3.459655e+002, 1.862314e+005
3.460172e+002, 1.865944e+005
3.460690e+002, 1.863866e+005
3.461207e+002, 1.861145e+005
3.461724e+002, 1.856751e+005
3.462242e+002, 1.856333e+005
3.462759e+002, 1.856510e+005
3.463276e+002, 1.853351e+005
3.463793e+002, 1.851706e+005
3.464310e+002, 1.852153e+005
3.464828e+002, 1.846192e+005
3.465345e+002, 1.847349e+005
3.465862e+002, 1.849167e+005
3.466379e+002, 1.846507e+005
3.466897e+002, 1.842846e+005
3.467414e+002, 1.846766e+005
3.467931e+002, 1.850346e+005
3.468448e+002, 1.848671e+005
3.468965e+002, 1.846044e+005
3.469483e+002, 1.846695e+005
3.470000e+002, 1.841606e+005
3.470517e+002, 1.839113e+005
3.471035e+002, 1.842138e+005
3.471552e+002, 1.843739e+005
3.472069e+002, 1.841732e+005
3.472586e+002, 1.836944e+005
3.473104e+002, 1.830889e+005
3.473621e+002, 1.832901e+005
3.474138e+002, 1.830330e+005
3.474655e+002, 1.826933e+005
3.475173e+002, 1.829034e+005
3.475690e+002, 1.825878e+005
3.476207e+002, 1.823141e+005
3.476724e+002, 1.823530e+005
3.477242e+002, 1.826339e+005
3.477759e+002, 1.826919e+005
3.478276e+002, 1.828195e+005
3.478793e+002, 1.829912e+005
3.479310e+002, 1.825739e+005
3.479828e+002, 1.828085e+005
3.480345e+002, 1.828058e+005
3.480862e+002, 1.827319e+005
3.481379e+002, 1.829259e+005
3.481897e+002, 1.830167e+005
3.482414e+002, 1.827250e+005
3.482931e+002, 1.827124e+005
3.483448e+002, 1.825107e+005
3.483965e+002, 1.822827e+005
3.484483e+002, 1.821951e+005
3.485000e+002, 1.819415e+005
3.485517e+002, 1.813879e+005
3.486035e+002, 1.812821e+005
3.486552e+002, 1.810393e+005
3.487069e+002, 1.814170e+005
3.487586e+002, 1.818354e+005
3.488104e+002, 1.818156e+005
3.488621e+002, 1.817761e+005
3.489138e+002, 1.820568e+005
3.489655e+002, 1.819579e+005
3.490173e+002, 1.818608e+005
3.490690e+002, 1.819448e+005
3.491207e+002, 1.819136e+005
3.491724e+002, 1.816432e+005
3.492242e+002, 1.819218e+005
3.492759e+002, 1.814313e+005
3.493276e+002, 1.814612e+005
3.493793e+002, 1.814815e+005
3.494310e+002, 1.816331e+005
3.494828e+002, 1.818100e+005
3.495345e+002, 1.817457e+005
3.495862e+002, 1.814565e+005
3.496379e+002, 1.817145e+005
3.496897e+002, 1.821485e+005
3.497414e+002, 1.819217e+005
3.497931e+002, 1.813554e+005
3.498448e+002, 1.816170e+005
3.498965e+002, 1.812970e+005
3.499483e+002, 1.812152e+005
3.500000e+002, 1.809651e+005
3.500517e+002, 1.807978e+005
3.501035e+002, 1.809459e+005
3.501552e+002, 1.808660e+005
3.502069e+002, 1.804238e+005
3.502586e+002, 1.804314e+005
3.503104e+002, 1.804230e+005
3.503621e+002, 1.800830e+005
3.504138e+002, 1.799286e+005
3.504655e+002, 1.800200e+005
3.505173e+002, 1.798430e+005
3.505690e+002, 1.792833e+005
3.506207e+002, 1.791661e+005
3.506724e+002, 1.791780e+005
3.507242e+002, 1.789714e+005
3.507759e+002, 1.786168e+005
3.508276e+002, 1.783816e+005
3.508793e+002, 1.787554e+005
3.509310e+002, 1.785839e+005
3.509828e+002, 1.780167e+005
3.510345e+002, 1.778078e+005
3.510862e+002, 1.781818e+005
3.511379e+002, 1.780462e+005
3.511897e+002, 1.776533e+005
3.512414e+002, 1.782145e+005
3.512931e+002, 1.781792e+005
3.513448e+002, 1.783209e+005
3.513965e+002, 1.787119e+005
3.514483e+002, 1.784291e+005
3.515000e+002, 1.780776e+005
3.515517e+002, 1.778731e+005
3.516035e+002, 1.777098e+005
3.516552e+002, 1.774876e+005
3.517069e+002, 1.769626e+005
3.517586e+002, 1.769766e+005
3.518104e+002, 1.767584e+005
3.518621e+002, 1.766354e+005
3.519138e+002, 1.764144e+005
3.519655e+002, 1.764844e+005
3.520173e+002, 1.767127e+005
3.520690e+002, 1.767547e+005
3.521207e+002, 1.769412e+005
3.521724e+002, 1.776562e+005
3.522242e+002, 1.774680e+005
3.522759e+002, 1.769544e+005
3.523276e+002, 1.768902e+005
3.523793e+002, 1.768103e+005
3.524310e+002, 1.768096e+005
3.524828e+002, 1.770880e+005
3.525345e+002, 1.772316e+005
3.525862e+002, 1.771119e+005
3.526379e+002, 1.768488e+005
3.526897e+002, 1.771712e+005
3.527414e+002, 1.771793e+005
3.527931e+002, 1.775693e+005
3.528448e+002, 1.773743e+005
3.528965e+002, 1.768850e+005
3.529483e+002, 1.764864e+005
3.530000e+002, 1.768066e+005
3.530517e+002, 1.770108e+005
3.531035e+002, 1.772828e+005
3.531552e+002, 1.771090e+005
3.532069e+002, 1.770115e+005
3.532586e+002, 1.771686e+005
3.533104e+002, 1.768685e+005
3.533621e+002, 1.763374e+005
3.534138e+002, 1.765251e+005
3.534655e+002, 1.766776e+005
3.535173e+002, 1.766610e+005
3.535690e+002, 1.763586e+005
3.536207e+002, 1.761350e+005
3.536724e+002, 1.760038e+005
3.537242e+002, 1.760677e+005
3.537759e+002, 1.757820e+005
3.538276e+002, 1.757465e+005
3.538793e+002, 1.760491e+005
3.539310e+002, 1.759036e+005
3.539828e+002, 1.756012e+005
3.540345e+002, 1.751708e+005
3.540862e+002, 1.748532e+005
3.541379e+002, 1.747327e+005
3.541897e+002, 1.749286e+005
3.542414e+002, 1.743616e+005
3.542931e+002, 1.743862e+005
3.543448e+002, 1.745170e+005
3.543965e+002, 1.745989e+005
3.544483e+002, 1.742241e+005
3.545000e+002, 1.739334e+005
3.545517e+002, 1.738390e+005
3.546035e+002, 1.736666e+005
3.546552e+002, 1.736680e+005
3.547069e+002, 1.733158e+005
3.547586e+002, 1.734143e+005
3.548104e+002, 1.736907e+005
3.548621e+002, 1.735528e+005
3.549138e+002, 1.735740e+005
3.549655e+002, 1.734715e+005
3.550173e+002, 1.736630e+005
3.550690e+002, 1.731605e+005
3.551207e+002, 1.726664e+005
3.551724e+002, 1.724880e+005
3.552242e+002, 1.722945e+005
3.552759e+002, 1.719864e+005
3.553276e+002, 1.719667e+005
3.553793e+002, 1.720488e+005
3.554310e+002, 1.722597e+005
3.554828e+002, 1.723200e+005
3.555345e+002, 1.721822e+005
3.555862e+002, 1.720453e+005
3.556379e+002, 1.716940e+005
3.556897e+002, 1.714640e+005
3.557414e+002, 1.719562e+005
3.557931e+002, 1.723008e+005
3.558448e+002, 1.715650e+005
3.558965e+002, 1.718349e+005
3.559483e+002, 1.719901e+005
3.560000e+002, 1.715595e+005
3.560517e+002, 1.709159e+005
3.561035e+002, 1.711181e+005
3.561552e+002, 1.714001e+005
3.562069e+002, 1.716419e+005
3.562586e+002, 1.711382e+005
3.563104e+002, 1.711878e+005
3.563621e+002, 1.717943e+005
3.564138e+002, 1.716397e+005
3.564655e+002, 1.708115e+005
3.565173e+002, 1.709273e+005
3.565690e+002, 1.711394e+005
3.566207e+002, 1.705983e+005
3.566724e+002, 1.702550e+005
3.567242e+002, 1.703936e+005
3.567759e+002, 1.703676e+005
3.568276e+002, 1.703939e+005
3.568793e+002, 1.705603e+005
3.569310e+002, 1.706769e+005
3.569828e+002, 1.704245e+005
3.570345e+002, 1.704652e+005
3.570862e+002, 1.701687e+005
3.571379e+002, 1.700625e+005
3.571897e+002, 1.700989e+005
3.572414e+002, 1.696043e+005
3.572931e+002, 1.696277e+005
3.573448e+002, 1.696415e+005
3.573965e+002, 1.693198e+005
3.574483e+002, 1.694731e+005
3.575000e+002, 1.694780e+005
3.575517e+002, 1.690736e+005
3.576035e+002, 1.692074e+005
3.576552e+002, 1.692599e+005
3.577069e+002, 1.695023e+005
3.577586e+002, 1.694311e+005
3.578104e+002, 1.695543e+005
3.578621e+002, 1.690857e+005
3.579138e+002, 1.687064e+005
3.579655e+002, 1.686275e+005
3.580173e+002, 1.689500e+005
3.580690e+002, 1.691062e+005
3.581207e+002, 1.690086e+005
3.581724e+002, 1.685603e+005
3.582242e+002, 1.688092e+005
3.582759e+002, 1.686162e+005
3.583276e+002, 1.679525e+005
3.583793e+002, 1.677776e+005
3.584310e+002, 1.681995e+005
3.584828e+002, 1.680356e+005
3.585345e+002, 1.677100e+005
3.585862e+002, 1.679349e+005
3.586379e+002, 1.681193e+005
3.586897e+002, 1.677088e+005
3.587414e+002, 1.677417e+005
3.587931e+002, 1.675869e+005
3.588448e+002, 1.680369e+005
3.588965e+002, 1.683397e+005
3.589483e+002, 1.679723e+005
3.590000e+002, 1.678951e+005
3.590517e+002, 1.677333e+005
3.591035e+002, 1.673282e+005
3.591552e+002, 1.671134e+005
3.592069e+002, 1.669740e+005
3.592586e+002, 1.672233e+005
3.593104e+002, 1.672664e+005
3.593621e+002, 1.672933e+005
3.594138e+002, 1.665141e+005
3.594655e+002, 1.667374e+005
3.595173e+002, 1.671785e+005
3.595690e+002, 1.669360e+005
3.596207e+002, 1.666466e+005
3.596724e+002, 1.667458e+005
3.597242e+002, 1.664697e+005
3.597759e+002, 1.666349e+005
3.598276e+002, 1.668509e+005
3.598793e+002, 1.668215e+005
3.599310e+002, 1.663879e+005
3.599828e+002, 1.661287e+005
3.600345e+002, 1.658876e+005
3.600862e+002, 1.662485e+005
3.601379e+002, 1.668364e+005
3.601897e+002, 1.664731e+005
3.602414e+002, 1.662437e+005
3.602931e+002, 1.661105e+005
3.603448e+002, 1.659456e+005
3.603965e+002, 1.659755e+005
3.604483e+002, 1.659665e+005
3.605000e+002, 1.657784e+005
3.605517e+002, 1.656073e+005
3.606035e+002, 1.657186e+005
3.606552e+002, 1.654593e+005
3.607069e+002, 1.649907e+005
3.607586e+002, 1.646332e+005
3.608104e+002, 1.648642e+005
3.608621e+002, 1.654164e+005
3.609138e+002, 1.653744e+005
3.609655e+002, 1.651088e+005
3.610173e+002, 1.648671e+005
3.610690e+002, 1.647095e+005
3.611207e+002, 1.647960e+005
3.611724e+002, 1.647936e+005
3.612242e+002, 1.645515e+005
3.612759e+002, 1.646417e+005
3.613276e+002, 1.647166e+005
3.613793e+002, 1.649745e+005
3.614310e+002, 1.648510e+005
3.614828e+002, 1.648954e+005
3.615345e+002, 1.648179e+005
3.615862e+002, 1.651083e+005
3.616379e+002, 1.648888e+005
3.616897e+002, 1.644782e+005
3.617414e+002, 1.639088e+005
3.617931e+002, 1.641002e+005
3.618448e+002, 1.640495e+005
3.618965e+002, 1.639970e+005
3.619483e+002, 1.636263e+005
3.620000e+002, 1.634736e+005
3.620517e+002, 1.631540e+005
3.621035e+002, 1.633129e+005
3.621552e+002, 1.630377e+005
3.622069e+002, 1.634596e+005
3.622586e+002, 1.634432e+005
3.623104e+002, 1.629379e+005
3.623621e+002, 1.626181e+005
3.624138e+002, 1.632244e+005
3.624655e+002, 1.632677e+005
3.625173e+002, 1.629057e+005
3.625690e+002, 1.629500e+005
3.626207e+002, 1.628749e+005
3.626724e+002, 1.630630e+005
3.627242e+002, 1.628140e+005
3.627759e+002, 1.626784e+005
3.628276e+002, 1.626285e+005
3.628793e+002, 1.627136e+005
3.629310e+002, 1.625131e+005
3.629828e+002, 1.623816e+005
3.630345e+002, 1.623832e+005
3.630862e+002, 1.622376e+005
3.631379e+002, 1.620782e+005
3.631897e+002, 1.623784e+005
3.632414e+002, 1.621900e+005
3.632931e+002, 1.618716e+005
3.633448e+002, 1.616397e+005
3.633965e+002, 1.618229e+005
3.634483e+002, 1.621154e+005
3.635000e+002, 1.623954e+005
3.635517e+002, 1.620675e+005
3.636035e+002, 1.618996e+005
3.636552e+002, 1.616342e+005
3.637069e+002, 1.616585e+005
3.637586e+002, 1.615414e+005
3.638104e+002, 1.617389e+005
3.638621e+002, 1.618359e+005
3.639138e+002, 1.613974e+005
3.639655e+002, 1.610822e+005
3.640173e+002, 1.614727e+005
3.640690e+002, 1.615261e+005
3.641207e+002, 1.617801e+005
3.641724e+002, 1.612821e+005
3.642242e+002, 1.611663e+005
3.642759e+002, 1.614499e+005
3.643276e+002, 1.613341e+005
3.643793e+002, 1.608998e+005
3.644310e+002, 1.610085e+005
3.644828e+002, 1.610642e+005
3.645345e+002, 1.607535e+005
3.645862e+002, 1.608752e+005
3.646379e+002, 1.609401e+005
3.646897e+002, 1.607638e+005
3.647414e+002, 1.605479e+005
3.647931e+002, 1.601631e+005
3.648448e+002, 1.602703e+005
3.648965e+002, 1.601638e+005
3.649483e+002, 1.602169e+005
3.650000e+002, 1.603689e+005
3.650517e+002, 1.605237e+005
3.651035e+002, 1.603950e+005
3.651552e+002, 1.603188e+005
3.652069e+002, 1.602248e+005
3.652586e+002, 1.599524e+005
3.653104e+002, 1.598703e+005
3.653621e+002, 1.596266e+005
3.654138e+002, 1.595112e+005
3.654655e+002, 1.590334e+005
3.655173e+002, 1.587868e+005
3.655690e+002, 1.595747e+005
3.656207e+002, 1.596733e+005
3.656724e+002, 1.596201e+005
3.657242e+002, 1.596936e+005
3.657759e+002, 1.597403e+005
3.658276e+002, 1.595130e+005
3.658793e+002, 1.591987e+005
3.659310e+002, 1.589066e+005
3.659828e+002, 1.591181e+005
3.660345e+002, 1.594336e+005
3.660862e+002, 1.590029e+005
3.661379e+002, 1.586909e+005
3.661897e+002, 1.584356e+005
3.662414e+002, 1.585293e+005
3.662931e+002, 1.584270e+005
3.663448e+002, 1.586184e+005
3.663965e+002, 1.585658e+005
3.664483e+002, 1.582909e+005
3.665000e+002, 1.577465e+005
3.665517e+002, 1.572420e+005
3.666035e+002, 1.576052e+005
3.666552e+002, 1.576059e+005
3.667069e+002, 1.572124e+005
3.667586e+002, 1.572533e+005
3.668104e+002, 1.575680e+005
3.668621e+002, 1.575544e+005
3.669138e+002, 1.573622e+005
3.669655e+002, 1.573961e+005
3.670173e+002, 1.574737e+005
3.670690e+002, 1.575359e+005
3.671207e+002, 1.573718e+005
3.671724e+002, 1.571579e+005
3.672242e+002, 1.571817e+005
3.672759e+002, 1.574676e+005
3.673276e+002, 1.576239e+005
3.673793e+002, 1.572560e+005
3.674310e+002, 1.570408e+005
3.674828e+002, 1.568104e+005
3.675345e+002, 1.562894e+005
3.675862e+002, 1.563432e+005
3.676379e+002, 1.565133e+005
3.676897e+002, 1.564570e+005
3.677414e+002, 1.561215e+005
3.677931e+002, 1.562908e+005
3.678448e+002, 1.563067e+005
3.678965e+002, 1.565432e+005
3.679483e+002, 1.562328e+005
3.680000e+002, 1.561143e+005
3.680517e+002, 1.558825e+005
3.681035e+002, 1.556791e+005
3.681552e+002, 1.555765e+005
3.682069e+002, 1.558708e+005
3.682586e+002, 1.556064e+005
3.683104e+002, 1.553960e+005
3.683621e+002, 1.552776e+005
3.684138e+002, 1.555700e+005
3.684655e+002, 1.559208e+005
3.685173e+002, 1.556456e+005
3.685690e+002, 1.551794e+005
3.686207e+002, 1.547364e+005
3.686724e+002, 1.545373e+005
3.687242e+002, 1.548836e+005
3.687759e+002, 1.546916e+005
3.688276e+002, 1.544659e+005
3.688793e+002, 1.548598e+005
3.689310e+002, 1.549246e+005
3.689828e+002, 1.545005e+005
3.690345e+002, 1.544802e+005
3.690862e+002, 1.546714e+005
3.691379e+002, 1.543689e+005
3.691897e+002, 1.540867e+005
3.692414e+002, 1.547931e+005
3.692931e+002, 1.550108e+005
3.693448e+002, 1.546844e+005
3.693965e+002, 1.543260e+005
3.694483e+002, 1.542109e+005
3.695000e+002, 1.541233e+005
3.695517e+002, 1.538234e+005
3.696035e+002, 1.534705e+005
3.696552e+002, 1.531848e+005
3.697069e+002, 1.536249e+005
3.697586e+002, 1.536699e+005
3.698104e+002, 1.535147e+005
3.698621e+002, 1.540493e+005
3.699138e+002, 1.540860e+005
3.699655e+002, 1.537411e+005
3.700173e+002, 1.535820e+005
3.700690e+002, 1.534834e+005
3.701207e+002, 1.529089e+005
3.701724e+002, 1.529243e+005
3.702242e+002, 1.528290e+005
3.702759e+002, 1.526494e+005
3.703276e+002, 1.524617e+005
3.703793e+002, 1.527430e+005
3.704310e+002, 1.523931e+005
3.704828e+002, 1.527019e+005
3.705345e+002, 1.527460e+005
3.705862e+002, 1.523525e+005
3.706379e+002, 1.520511e+005
3.706897e+002, 1.521789e+005
3.707414e+002, 1.521131e+005
3.707931e+002, 1.522612e+005
3.708448e+002, 1.524197e+005
3.708965e+002, 1.522253e+005
3.709483e+002, 1.524637e+005
3.710000e+002, 1.525953e+005
3.710517e+002, 1.524722e+005
3.711035e+002, 1.524550e+005
3.711552e+002, 1.522437e+005
3.712069e+002, 1.522183e+005
3.712586e+002, 1.517296e+005
3.713104e+002, 1.514902e+005
3.713621e+002, 1.514216e+005
3.714138e+002, 1.519778e+005
3.714655e+002, 1.520138e+005
3.715173e+002, 1.513583e+005
3.715690e+002, 1.509759e+005
3.716207e+002, 1.515106e+005
3.716724e+002, 1.513166e+005
3.717242e+002, 1.509378e+005
3.717759e+002, 1.508830e+005
3.718276e+002, 1.507827e+005
3.718793e+002, 1.508086e+005
3.719310e+002, 1.505899e+005
3.719828e+002, 1.502261e+005
3.720345e+002, 1.503411e+005
3.720862e+002, 1.505627e+005
3.721379e+002, 1.503793e+005
3.721897e+002, 1.504005e+005
3.722414e+002, 1.498343e+005
3.722931e+002, 1.492683e+005
3.723448e+002, 1.496624e+005
3.723965e+002, 1.501061e+005
3.724483e+002, 1.503202e+005
3.725000e+002, 1.499381e+005
3.725517e+002, 1.496194e+005
3.726035e+002, 1.495849e+005
3.726552e+002, 1.499028e+005
3.727069e+002, 1.499200e+005
3.727586e+002, 1.499022e+005
3.728104e+002, 1.497574e+005
3.728621e+002, 1.499010e+005
3.729138e+002, 1.495454e+005
3.729655e+002, 1.495432e+005
3.730173e+002, 1.492965e+005
3.730690e+002, 1.488440e+005
3.731207e+002, 1.487162e+005
3.731724e+002, 1.489905e+005
3.732242e+002, 1.485148e+005
3.732759e+002, 1.481385e+005
3.733276e+002, 1.485069e+005
3.733793e+002, 1.485879e+005
3.734310e+002, 1.484481e+005
3.734828e+002, 1.490172e+005
3.735345e+002, 1.488155e+005
3.735862e+002, 1.488970e+005
3.736379e+002, 1.488808e+005
3.736897e+002, 1.482474e+005
3.737414e+002, 1.477096e+005
3.737931e+002, 1.476801e+005
3.738448e+002, 1.475657e+005
3.738965e+002, 1.475252e+005
3.739483e+002, 1.477593e+005
3.740000e+002, 1.476835e+005
3.740517e+002, 1.474500e+005
3.741035e+002, 1.474859e+005
3.741552e+002, 1.476488e+005
3.742069e+002, 1.473466e+005
3.742586e+002, 1.475171e+005
3.743104e+002, 1.475882e+005
3.743621e+002, 1.471354e+005
3.744138e+002, 1.474830e+005
3.744655e+002, 1.474257e+005
3.745173e+002, 1.471527e+005
3.745690e+002, 1.472595e+005
3.746207e+002, 1.471275e+005
3.746724e+002, 1.469924e+005
3.747242e+002, 1.469686e+005
3.747759e+002, 1.467689e+005
3.748276e+002, 1.467393e+005
3.748793e+002, 1.464454e+005
3.749310e+002, 1.460162e+005
3.749828e+002, 1.462580e+005
3.750345e+002, 1.462386e+005
3.750862e+002, 1.459134e+005
3.751379e+002, 1.457321e+005
3.751897e+002, 1.457414e+005
3.752414e+002, 1.461211e+005
3.752931e+002, 1.460888e+005
3.753448e+002, 1.459993e+005
3.753965e+002, 1.454963e+005
3.754483e+002, 1.453191e+005
3.755000e+002, 1.455285e+005
3.755517e+002, 1.454086e+005
3.756035e+002, 1.459026e+005
3.756552e+002, 1.459716e+005
3.757069e+002, 1.452613e+005
3.757586e+002, 1.447496e+005
3.758104e+002, 1.445003e+005
3.758621e+002, 1.440504e+005
3.759138e+002, 1.445645e+005
3.759655e+002, 1.446633e+005
3.760173e+002, 1.445298e+005
3.760690e+002, 1.444116e+005
3.761207e+002, 1.443503e+005
3.761724e+002, 1.447695e+005
3.762242e+002, 1.448514e+005
3.762759e+002, 1.445254e+005
3.763276e+002, 1.445086e+005
3.763793e+002, 1.442855e+005
3.764310e+002, 1.438843e+005
3.764828e+002, 1.439292e+005
3.765345e+002, 1.441086e+005
3.765862e+002, 1.441291e+005
3.766379e+002, 1.437901e+005
3.766897e+002, 1.441563e+005
3.767414e+002, 1.439236e+005
3.767931e+002, 1.434893e+005
3.768448e+002, 1.433296e+005
3.768965e+002, 1.434576e+005
3.769483e+002, 1.435400e+005
3.770000e+002, 1.437444e+005
3.770517e+002, 1.436026e+005
3.771035e+002, 1.437305e+005
3.771552e+002, 1.440827e+005
3.772069e+002, 1.433408e+005
3.772586e+002, 1.429739e+005
3.773104e+002, 1.427496e+005
3.773621e+002, 1.427293e+005
3.774138e+002, 1.426016e+005
3.774655e+002, 1.429528e+005
3.775173e+002, 1.428424e+005
3.775690e+002, 1.426295e+005
3.776207e+002, 1.427828e+005
3.776724e+002, 1.425238e+005
3.777242e+002, 1.420538e+005
3.777759e+002, 1.420300e+005
3.778276e+002, 1.420390e+005
3.778793e+002, 1.424319e+005
3.779310e+002, 1.425075e+005
3.779828e+002, 1.422811e+005
3.780345e+002, 1.420046e+005
3.780862e+002, 1.420616e+005
3.781379e+002, 1.420977e+005
3.781897e+002, 1.422073e+005
3.782414e+002, 1.423495e+005
3.782931e+002, 1.421753e+005
3.783448e+002, 1.423293e+005
3.783965e+002, 1.422392e+005
3.784483e+002, 1.416968e+005
3.785000e+002, 1.412894e+005
3.785517e+002, 1.417846e+005
3.786035e+002, 1.418435e+005
3.786552e+002, 1.414265e+005
3.787069e+002, 1.414589e+005
3.787586e+002, 1.412879e+005
3.788104e+002, 1.412878e+005
3.788621e+002, 1.411729e+005
3.789138e+002, 1.408393e+005
3.789655e+002, 1.407649e+005
3.790173e+002, 1.408378e+005
3.790690e+002, 1.406112e+005
3.791207e+002, 1.401261e+005
3.791724e+002, 1.402108e+005
3.792242e+002, 1.398343e+005
3.792759e+002, 1.396020e+005
3.793276e+002, 1.393746e+005
3.793793e+002, 1.389312e+005
3.794310e+002, 1.393658e+005
3.794828e+002, 1.397890e+005
3.795345e+002, 1.399786e+005
3.795862e+002, 1.403598e+005
3.796379e+002, 1.402559e+005
3.796897e+002, 1.400790e+005
3.797414e+002, 1.394683e+005
3.797931e+002, 1.394343e+005
3.798448e+002, 1.395196e+005
3.798965e+002, 1.394686e+005
3.799483e+002, 1.394745e+005
3.800000e+002, 1.400224e+005
3.800517e+002, 1.400742e+005
3.801035e+002, 1.399716e+005
3.801552e+002, 1.393215e+005
3.802069e+002, 1.392258e+005
3.802586e+002, 1.393214e+005
3.803104e+002, 1.390404e+005
3.803621e+002, 1.387269e+005
3.804138e+002, 1.389547e+005
3.804655e+002, 1.388697e+005
3.805173e+002, 1.391880e+005
3.805690e+002, 1.393292e+005
3.806207e+002, 1.393432e+005
3.806724e+002, 1.390759e+005
3.807242e+002, 1.389459e+005
3.807759e+002, 1.384958e+005
3.808276e+002, 1.384255e+005
3.808793e+002, 1.384379e+005
3.809310e+002, 1.377874e+005
3.809828e+002, 1.376665e+005
3.810345e+002, 1.378357e+005
3.810862e+002, 1.377965e+005
3.811379e+002, 1.378231e+005
3.811897e+002, 1.382497e+005
3.812414e+002, 1.380696e+005
3.812931e+002, 1.374590e+005
3.813448e+002, 1.371595e+005
3.813965e+002, 1.372305e+005
3.814483e+002, 1.374933e+005
3.815000e+002, 1.374831e+005
3.815517e+002, 1.371636e+005
3.816035e+002, 1.369441e+005
3.816552e+002, 1.368560e+005
3.817069e+002, 1.366788e+005
3.817586e+002, 1.365634e+005
3.818104e+002, 1.368386e+005
3.818621e+002, 1.366618e+005
3.819138e+002, 1.367436e+005
3.819655e+002, 1.368269e+005
3.820173e+002, 1.366149e+005
3.820690e+002, 1.366271e+005
3.821207e+002, 1.363330e+005
3.821724e+002, 1.362176e+005
3.822242e+002, 1.362326e+005
3.822759e+002, 1.365187e+005
3.823276e+002, 1.365945e+005
3.823793e+002, 1.365770e+005
3.824310e+002, 1.367467e+005
3.824828e+002, 1.362532e+005
3.825345e+002, 1.356120e+005
3.825862e+002, 1.355488e+005
3.826379e+002, 1.358959e+005
3.826897e+002, 1.357932e+005
3.827414e+002, 1.359989e+005
3.827931e+002, 1.359097e+005
3.828448e+002, 1.358048e+005
3.828965e+002, 1.355243e+005
3.829483e+002, 1.356257e+005
3.830000e+002, 1.353884e+005
3.830517e+002, 1.353285e+005
3.831035e+002, 1.355703e+005
3.831552e+002, 1.354383e+005
3.832069e+002, 1.351302e+005
3.832586e+002, 1.351700e+005
3.833104e+002, 1.353405e+005
3.833621e+002, 1.354193e+005
3.834138e+002, 1.351500e+005
3.834655e+002, 1.349359e+005
3.835173e+002, 1.349077e+005
3.835690e+002, 1.344983e+005
3.836207e+002, 1.343101e+005
3.836724e+002, 1.346886e+005
3.837242e+002, 1.348048e+005
3.837759e+002, 1.346498e+005
3.838276e+002, 1.347772e+005
3.838793e+002, 1.344303e+005
3.839310e+002, 1.344439e+005
3.839828e+002, 1.346582e+005
3.840345e+002, 1.345482e+005
3.840862e+002, 1.342079e+005
3.841379e+002, 1.340219e+005
3.841897e+002, 1.340648e+005
3.842414e+002, 1.343281e+005
3.842931e+002, 1.346247e+005
3.843448e+002, 1.348133e+005
3.843965e+002, 1.343253e+005
3.844483e+002, 1.336742e+005
3.845000e+002, 1.336063e+005
3.845517e+002, 1.337450e+005
3.846035e+002, 1.340849e+005
3.846552e+002, 1.340070e+005
3.847069e+002, 1.337553e+005
3.847586e+002, 1.339729e+005
3.848104e+002, 1.340725e+005
3.848621e+002, 1.334340e+005
3.849138e+002, 1.332700e+005
3.849655e+002, 1.332055e+005
3.850173e+002, 1.330096e+005
3.850690e+002, 1.329664e+005
3.851207e+002, 1.325380e+005
3.851724e+002, 1.324164e+005
3.852242e+002, 1.325175e+005
3.852759e+002, 1.325355e+005
3.853276e+002, 1.322587e+005
3.853793e+002, 1.325986e+005
3.854310e+002, 1.328740e+005
3.854828e+002, 1.327894e+005
3.855345e+002, 1.324700e+005
3.855862e+002, 1.324879e+005
3.856379e+002, 1.324125e+005
3.856897e+002, 1.324737e+005
3.857414e+002, 1.320211e+005
3.857931e+002, 1.316685e+005
3.858448e+002, 1.315891e+005
3.858965e+002, 1.318498e+005
3.859483e+002, 1.319827e+005
3.860000e+002, 1.317891e+005
3.860517e+002, 1.316641e+005
3.861035e+002, 1.318746e+005
3.861552e+002, 1.317630e+005
3.862069e+002, 1.315298e+005
3.862586e+002, 1.313705e+005
3.863104e+002, 1.316381e+005
3.863621e+002, 1.313749e+005
3.864138e+002, 1.313756e+005
3.864655e+002, 1.313289e+005
3.865173e+002, 1.311349e+005
3.865690e+002, 1.312117e+005
3.866207e+002, 1.312517e+005
3.866724e+002, 1.310738e+005
3.867242e+002, 1.307440e+005
3.867759e+002, 1.306941e+005
3.868276e+002, 1.310462e+005
3.868793e+002, 1.309934e+005
3.869310e+002, 1.308626e+005
3.869828e+002, 1.305284e+005
3.870345e+002, 1.304315e+005
3.870862e+002, 1.300290e+005
3.871379e+002, 1.300510e+005
3.871897e+002, 1.299288e+005
3.872414e+002, 1.300190e+005
3.872931e+002, 1.302043e+005
3.873448e+002, 1.298239e+005
3.873965e+002, 1.302703e+005
3.874483e+002, 1.303625e+005
3.875000e+002, 1.297785e+005
3.875517e+002, 1.294582e+005
3.876035e+002, 1.295304e+005
3.876552e+002, 1.297208e+005
3.877069e+002, 1.298658e+005
3.877586e+002, 1.295849e+005
3.878104e+002, 1.290641e+005
3.878621e+002, 1.288546e+005
3.879138e+002, 1.289293e+005
3.879655e+002, 1.287690e+005
3.880173e+002, 1.290684e+005
3.880690e+002, 1.287748e+005
3.881207e+002, 1.288957e+005
3.881724e+002, 1.289150e+005
3.882242e+002, 1.289249e+005
3.882759e+002, 1.283590e+005
3.883276e+002, 1.286251e+005
3.883793e+002, 1.287598e+005
3.884310e+002, 1.286632e+005
3.884828e+002, 1.287491e+005
3.885345e+002, 1.285679e+005
3.885862e+002, 1.283549e+005
3.886379e+002, 1.283200e+005
3.886897e+002, 1.283860e+005
3.887414e+002, 1.283703e+005
3.887931e+002, 1.281193e+005
3.888448e+002, 1.279009e+005
3.888965e+002, 1.280069e+005
3.889483e+002, 1.282775e+005
3.890000e+002, 1.281077e+005
3.890517e+002, 1.277702e+005
3.891035e+002, 1.280027e+005
3.891552e+002, 1.283866e+005
3.892069e+002, 1.280040e+005
3.892586e+002, 1.274689e+005
3.893104e+002, 1.271960e+005
3.893621e+002, 1.271865e+005
3.894138e+002, 1.272734e+005
3.894655e+002, 1.275916e+005
3.895173e+002, 1.275533e+005
3.895690e+002, 1.275794e+005
3.896207e+002, 1.270879e+005
3.896724e+002, 1.267620e+005
3.897242e+002, 1.269351e+005
3.897759e+002, 1.273598e+005
3.898276e+002, 1.275039e+005
3.898793e+002, 1.274141e+005
3.899310e+002, 1.274535e+005
3.899828e+002, 1.273017e+005
3.900345e+002, 1.270891e+005
3.900862e+002, 1.270581e+005
3.901379e+002, 1.269482e+005
3.901897e+002, 1.267722e+005
3.902414e+002, 1.266078e+005
3.902931e+002, 1.264012e+005
3.903448e+002, 1.264853e+005
3.903965e+002, 1.266432e+005
3.904483e+002, 1.261493e+005
3.905000e+002, 1.260148e+005
3.905517e+002, 1.263727e+005
3.906035e+002, 1.263120e+005
3.906552e+002, 1.263133e+005
3.907069e+002, 1.262702e+005
3.907586e+002, 1.258830e+005
3.908104e+002, 1.256392e+005
3.908621e+002, 1.258105e+005
3.909138e+002, 1.258589e+005
3.909655e+002, 1.261625e+005
3.910173e+002, 1.261546e+005
3.910690e+002, 1.257813e+005
3.911207e+002, 1.256390e+005
3.911724e+002, 1.257016e+005
3.912242e+002, 1.255607e+005
3.912759e+002, 1.256321e+005
3.913276e+002, 1.255627e+005
3.913793e+002, 1.252648e+005
3.914310e+002, 1.253832e+005
3.914828e+002, 1.257975e+005
3.915345e+002, 1.253323e+005
3.915862e+002, 1.252905e+005
3.916379e+002, 1.252459e+005
3.916897e+002, 1.250448e+005
3.917414e+002, 1.251495e+005
3.917931e+002, 1.248479e+005
3.918448e+002, 1.245310e+005
3.918965e+002, 1.242025e+005
3.919483e+002, 1.243401e+005
3.920000e+002, 1.246653e+005
3.920517e+002, 1.246402e+005
3.921035e+002, 1.243342e+005
3.921552e+002, 1.241939e+005
3.922069e+002, 1.241871e+005
3.922586e+002, 1.245097e+005
3.923104e+002, 1.247348e+005
3.923621e+002, 1.244155e+005
3.924138e+002, 1.239911e+005
3.924655e+002, 1.239876e+005
3.925173e+002, 1.237075e+005
3.925690e+002, 1.235491e+005
3.926207e+002, 1.239337e+005
3.926724e+002, 1.239529e+005
3.927242e+002, 1.236281e+005
3.927759e+002, 1.234104e+005
3.928276e+002, 1.235756e+005
3.928793e+002, 1.235457e+005
3.929310e+002, 1.231397e+005
3.929828e+002, 1.232852e+005
3.930345e+002, 1.231397e+005
3.930862e+002, 1.230191e+005
3.931379e+002, 1.231082e+005
3.931897e+002, 1.231417e+005
3.932414e+002, 1.232804e+005
3.932931e+002, 1.233211e+005
3.933448e+002, 1.234863e+005
3.933965e+002, 1.228774e+005
3.934483e+002, 1.230067e+005
3.935000e+002, 1.231996e+005
3.935517e+002, 1.225810e+005
3.936035e+002, 1.227582e+005
3.936552e+002, 1.226596e+005
3.937069e+002, 1.223715e+005
3.937586e+002, 1.225726e+005
3.938104e+002, 1.231069e+005
3.938621e+002, 1.229733e+005
3.939138e+002, 1.225759e+005
3.939655e+002, 1.221288e+005
3.940173e+002, 1.221298e+005
3.940690e+002, 1.221250e+005
3.941207e+002, 1.223405e+005
3.941724e+002, 1.220897e+005
3.942242e+002, 1.221547e+005
3.942759e+002, 1.224772e+005
3.943276e+002, 1.222927e+005
3.943793e+002, 1.220056e+005
3.944310e+002, 1.216630e+005
3.944828e+002, 1.215580e+005
3.945345e+002, 1.212980e+005
3.945862e+002, 1.213256e+005
3.946379e+002, 1.210456e+005
3.946897e+002, 1.211217e+005
3.947414e+002, 1.212513e+005
3.947931e+002, 1.213049e+005
3.948448e+002, 1.215396e+005
3.948965e+002, 1.213651e+005
3.949483e+002, 1.211460e+005
3.950000e+002, 1.213529e+005
3.950517e+002, 1.213895e+005
3.951035e+002, 1.208496e+005
3.951552e+002, 1.207414e+005
3.952069e+002, 1.206969e+005
3.952586e+002, 1.206428e+005
3.953104e+002, 1.206061e+005
3.953621e+002, 1.209218e+005
3.954138e+002, 1.208946e+005
3.954655e+002, 1.208530e+005
3.955173e+002, 1.208950e+005
3.955690e+002, 1.205727e+005
3.956207e+002, 1.205293e+005
3.956724e+002, 1.202207e+005
3.957242e+002, 1.199054e+005
3.957759e+002, 1.202139e+005
3.958276e+002, 1.204230e+005
3.958793e+002, 1.204466e+005
3.959310e+002, 1.204680e+005
3.959828e+002, 1.203416e+005
3.960345e+002, 1.203164e+005
3.960862e+002, 1.203350e+005
3.961379e+002, 1.201416e+005
3.961897e+002, 1.197423e+005
3.962414e+002, 1.198142e+005
3.962931e+002, 1.198620e+005
3.963448e+002, 1.200093e+005
3.963965e+002, 1.198091e+005
3.964483e+002, 1.197939e+005
3.965000e+002, 1.197731e+005
3.965517e+002, 1.194826e+005
3.966035e+002, 1.192201e+005
3.966552e+002, 1.188633e+005
3.967069e+002, 1.190694e+005
3.967586e+002, 1.190161e+005
3.968104e+002, 1.190152e+005
3.968621e+002, 1.190631e+005
3.969138e+002, 1.188431e+005
3.969655e+002, 1.187343e+005
3.970173e+002, 1.189671e+005
3.970690e+002, 1.188695e+005
3.971207e+002, 1.185305e+005
3.971724e+002, 1.187714e+005
3.972242e+002, 1.188117e+005
3.972759e+002, 1.186568e+005
3.973276e+002, 1.188605e+005
3.973793e+002, 1.189610e+005
3.974310e+002, 1.191181e+005
3.974828e+002, 1.188946e+005
3.975345e+002, 1.185655e+005
3.975862e+002, 1.184716e+005
3.976379e+002, 1.185668e+005
3.976897e+002, 1.185282e+005
3.977414e+002, 1.181743e+005
3.977931e+002, 1.183148e+005
3.978448e+002, 1.181359e+005
3.978965e+002, 1.177248e+005
3.979483e+002, 1.178225e+005
3.980000e+002, 1.181321e+005
3.980517e+002, 1.177702e+005
3.981035e+002, 1.174824e+005
3.981552e+002, 1.172740e+005
3.982069e+002, 1.175145e+005
3.982586e+002, 1.173815e+005
3.983104e+002, 1.171573e+005
3.983621e+002, 1.174764e+005
3.984138e+002, 1.176054e+005
3.984655e+002, 1.174697e+005
3.985173e+002, 1.174795e+005
3.985690e+002, 1.172318e+005
3.986207e+002, 1.170710e+005
3.986724e+002, 1.168168e+005
3.987242e+002, 1.168153e+005
3.987759e+002, 1.167437e+005
3.988276e+002, 1.166972e+005
3.988793e+002, 1.168416e+005
3.989310e+002, 1.168182e+005
3.989828e+002, 1.166554e+005
3.990345e+002, 1.167671e+005
3.990862e+002, 1.168269e+005
3.991379e+002, 1.166093e+005
3.991897e+002, 1.166920e+005
3.992414e+002, 1.165312e+005
3.992931e+002, 1.163909e+005
3.993448e+002, 1.164208e+005
3.993965e+002, 1.161978e+005
3.994483e+002, 1.162376e+005
3.995000e+002, 1.165566e+005
3.995517e+002, 1.163780e+005
3.996035e+002, 1.157860e+005
3.996552e+002, 1.157539e+005
3.997069e+002, 1.155678e+005
3.997586e+002, 1.155214e+005
3.998104e+002, 1.156032e+005
3.998621e+002, 1.152532e+005
3.999138e+002, 1.150144e+005
3.999655e+002, 1.150405e+005
4.000173e+002, 1.147955e+005
4.000690e+002, 1.147848e+005
4.001207e+002, 1.149066e+005
4.001724e+002, 1.150177e+005
4.002242e+002, 1.151374e+005
4.002759e+002, 1.152662e+005
4.003276e+002, 1.151358e+005
4.003793e+002, 1.151183e+005
4.004310e+002, 1.149445e+005
4.004828e+002, 1.146996e+005
4.005345e+002, 1.145953e+005
4.005862e+002, 1.148455e+005
4.006379e+002, 1.150791e+005
4.006897e+002, 1.148495e+005
4.007414e+002, 1.148018e+005
4.007931e+002, 1.152289e+005
4.008448e+002, 1.153618e+005
4.008965e+002, 1.151781e+005
4.009483e+002, 1.150102e+005
4.010000e+002, 1.148360e+005
4.010517e+002, 1.145269e+005
4.011035e+002, 1.147465e+005
4.011552e+002, 1.146605e+005
4.012069e+002, 1.144983e+005
4.012586e+002, 1.144199e+005
4.013104e+002, 1.143351e+005
4.013621e+002, 1.146500e+005
4.014138e+002, 1.147430e+005
4.014655e+002, 1.144071e+005
4.015173e+002, 1.139302e+005
4.015690e+002, 1.141513e+005
4.016207e+002, 1.142399e+005
4.016724e+002, 1.142456e+005
4.017242e+002, 1.140257e+005
4.017759e+002, 1.138508e+005
4.018276e+002, 1.137063e+005
4.018793e+002, 1.139015e+005
4.019310e+002, 1.134152e+005
4.019828e+002, 1.132788e+005
4.020345e+002, 1.134500e+005
4.020862e+002, 1.137651e+005
4.021379e+002, 1.136092e+005
4.021897e+002, 1.135277e+005
4.022414e+002, 1.133634e+005
4.022931e+002, 1.135471e+005
4.023448e+002, 1.133927e+005
4.023965e+002, 1.133728e+005
4.024483e+002, 1.136329e+005
4.025000e+002, 1.135543e+005
4.025517e+002, 1.134881e+005
4.026035e+002, 1.134154e+005
4.026552e+002, 1.132211e+005
4.027069e+002, 1.131903e+005
4.027586e+002, 1.130393e+005
4.028104e+002, 1.135362e+005
4.028621e+002, 1.138328e+005
4.029138e+002, 1.136937e+005
4.029655e+002, 1.133416e+005
4.030173e+002, 1.137596e+005
4.030690e+002, 1.139514e+005
4.031207e+002, 1.138191e+005
4.031724e+002, 1.137109e+005
4.032242e+002, 1.136775e+005
4.032759e+002, 1.133436e+005
4.033276e+002, 1.136676e+005
4.033793e+002, 1.137584e+005
4.034310e+002, 1.136198e+005
4.034828e+002, 1.134806e+005
4.035345e+002, 1.136532e+005
4.035862e+002, 1.136229e+005
4.036379e+002, 1.134365e+005
4.036897e+002, 1.133478e+005
4.037414e+002, 1.131650e+005
4.037931e+002, 1.130095e+005
4.038448e+002, 1.130298e+005
4.038965e+002, 1.130510e+005
4.039483e+002, 1.134092e+005
4.040000e+002, 1.136712e+005
4.040517e+002, 1.133076e+005
4.041035e+002, 1.129532e+005
4.041552e+002, 1.131290e+005
4.042069e+002, 1.132106e+005
4.042586e+002, 1.130539e+005
4.043104e+002, 1.132399e+005
4.043621e+002, 1.133896e+005
4.044138e+002, 1.131132e+005
4.044655e+002, 1.128347e+005
4.045173e+002, 1.126054e+005
4.045690e+002, 1.126296e+005
4.046207e+002, 1.129294e+005
4.046724e+002, 1.129963e+005
4.047242e+002, 1.129043e+005
4.047759e+002, 1.129906e+005
4.048276e+002, 1.130014e+005
4.048793e+002, 1.126891e+005
4.049310e+002, 1.123352e+005
4.049828e+002, 1.122588e+005
4.050345e+002, 1.121997e+005
4.050862e+002, 1.123496e+005
4.051379e+002, 1.124246e+005
4.051897e+002, 1.124722e+005
4.052414e+002, 1.122340e+005
4.052931e+002, 1.123598e+005
4.053448e+002, 1.121015e+005
4.053965e+002, 1.122141e+005
4.054483e+002, 1.118543e+005
4.055000e+002, 1.118411e+005
4.055517e+002, 1.117877e+005
4.056035e+002, 1.112978e+005
4.056552e+002, 1.109856e+005
4.057069e+002, 1.110368e+005
4.057586e+002, 1.107069e+005
4.058104e+002, 1.109617e+005
4.058621e+002, 1.110865e+005
4.059138e+002, 1.108937e+005
4.059655e+002, 1.105607e+005
4.060173e+002, 1.101844e+005
4.060690e+002, 1.102324e+005
4.061207e+002, 1.104071e+005
4.061724e+002, 1.105342e+005
4.062242e+002, 1.103995e+005
4.062759e+002, 1.098638e+005
4.063276e+002, 1.101444e+005
4.063793e+002, 1.100492e+005
4.064310e+002, 1.100657e+005
4.064828e+002, 1.101432e+005
4.065345e+002, 1.103274e+005
4.065862e+002, 1.103792e+005
4.066379e+002, 1.102006e+005
4.066897e+002, 1.101114e+005
4.067414e+002, 1.097963e+005
4.067931e+002, 1.095999e+005
4.068448e+002, 1.095510e+005
4.068965e+002, 1.094589e+005
4.069483e+002, 1.096988e+005
4.070000e+002, 1.096043e+005
4.070517e+002, 1.090983e+005
4.071035e+002, 1.092386e+005
4.071552e+002, 1.094875e+005
4.072069e+002, 1.092533e+005
4.072586e+002, 1.088391e+005
4.073104e+002, 1.088971e+005
4.073621e+002, 1.086931e+005
4.074138e+002, 1.088093e+005
4.074655e+002, 1.087416e+005
4.075173e+002, 1.084211e+005
4.075690e+002, 1.081980e+005
4.076207e+002, 1.085162e+005
4.076724e+002, 1.083599e+005
4.077242e+002, 1.084283e+005
4.077759e+002, 1.083366e+005
4.078276e+002, 1.084500e+005
4.078793e+002, 1.086541e+005
4.079310e+002, 1.085443e+005
4.079828e+002, 1.082769e+005
4.080345e+002, 1.080785e+005
4.080862e+002, 1.078952e+005
4.081379e+002, 1.075181e+005
4.081897e+002, 1.073675e+005
4.082414e+002, 1.073981e+005
4.082931e+002, 1.074657e+005
4.083448e+002, 1.078979e+005
4.083965e+002, 1.078938e+005
4.084483e+002, 1.076532e+005
4.085000e+002, 1.078326e+005
4.085517e+002, 1.082061e+005
4.086035e+002, 1.077183e+005
4.086552e+002, 1.075925e+005
4.087069e+002, 1.077773e+005
4.087586e+002, 1.076886e+005
4.088104e+002, 1.077524e+005
4.088621e+002, 1.076001e+005
4.089138e+002, 1.070369e+005
4.089655e+002, 1.068379e+005
4.090173e+002, 1.069737e+005
4.090690e+002, 1.070185e+005
4.091207e+002, 1.069700e+005
4.091724e+002, 1.071106e+005
4.092242e+002, 1.071764e+005
4.092759e+002, 1.071017e+005
4.093276e+002, 1.070404e+005
4.093793e+002, 1.067155e+005
4.094310e+002, 1.068440e+005
4.094828e+002, 1.068501e+005
4.095345e+002, 1.070195e+005
4.095862e+002, 1.066311e+005
4.096379e+002, 1.066109e+005
4.096897e+002, 1.067812e+005
4.097414e+002, 1.069250e+005
4.097931e+002, 1.067446e+005
4.098448e+002, 1.062976e+005
4.098965e+002, 1.064264e+005
4.099483e+002, 1.063786e+005
4.100000e+002, 1.062861e+005
4.100517e+002, 1.068872e+005
4.101035e+002, 1.070415e+005
4.101552e+002, 1.066039e+005
4.102069e+002, 1.063874e+005
4.102586e+002, 1.067505e+005
4.103104e+002, 1.068872e+005
4.103621e+002, 1.067219e+005
4.104138e+002, 1.066197e+005
4.104655e+002, 1.062158e+005
4.105173e+002, 1.062388e+005
4.105690e+002, 1.061029e+005
4.106207e+002, 1.058266e+005
4.106724e+002, 1.056684e+005
4.107242e+002, 1.055582e+005
4.107759e+002, 1.056951e+005
4.108276e+002, 1.059606e+005
4.108793e+002, 1.060684e+005
4.109310e+002, 1.054776e+005
4.109828e+002, 1.056804e+005
4.110345e+002, 1.060874e+005
4.110862e+002, 1.062713e+005
4.111379e+002, 1.060186e+005
4.111897e+002, 1.057859e+005
4.112414e+002, 1.056434e+005
4.112931e+002, 1.057304e+005
4.113448e+002, 1.059490e+005
4.113965e+002, 1.062657e+005
4.114483e+002, 1.062581e+005
4.115000e+002, 1.060989e+005
4.115517e+002, 1.060215e+005
4.116035e+002, 1.060863e+005
4.116552e+002, 1.061385e+005
4.117069e+002, 1.060276e+005
4.117586e+002, 1.060627e+005
4.118104e+002, 1.057793e+005
4.118621e+002, 1.055892e+005
4.119138e+002, 1.056327e+005
4.119655e+002, 1.057228e+005
4.120173e+002, 1.050949e+005
4.120690e+002, 1.049113e+005
4.121207e+002, 1.052042e+005
4.121724e+002, 1.053544e+005
4.122242e+002, 1.052141e+005
4.122759e+002, 1.055055e+005
4.123276e+002, 1.054010e+005
4.123793e+002, 1.053366e+005
4.124310e+002, 1.052255e+005
4.124828e+002, 1.048560e+005
4.125345e+002, 1.051204e+005
4.125862e+002, 1.051595e+005
4.126379e+002, 1.046979e+005
4.126897e+002, 1.044956e+005
4.127414e+002, 1.047124e+005
4.127931e+002, 1.049146e+005
4.128448e+002, 1.051069e+005
4.128965e+002, 1.050627e+005
4.129483e+002, 1.048368e+005
4.130000e+002, 1.049825e+005
4.130518e+002, 1.046717e+005
4.131035e+002, 1.042898e+005
4.131552e+002, 1.041795e+005
4.132069e+002, 1.041840e+005
4.132586e+002, 1.040359e+005
4.133104e+002, 1.039575e+005
4.133621e+002, 1.041858e+005
4.134138e+002, 1.040915e+005
4.134655e+002, 1.039862e+005
4.135173e+002, 1.037854e+005
4.135690e+002, 1.036069e+005
4.136207e+002, 1.034740e+005
4.136724e+002, 1.036378e+005
4.137242e+002, 1.036182e+005
4.137759e+002, 1.035050e+005
4.138276e+002, 1.037931e+005
4.138793e+002, 1.037903e+005
4.139310e+002, 1.038580e+005
4.139828e+002, 1.038367e+005
4.140345e+002, 1.035236e+005
4.140862e+002, 1.036834e+005
4.141379e+002, 1.038624e+005
4.141897e+002, 1.034314e+005
4.142414e+002, 1.033954e+005
4.142931e+002, 1.035062e+005
4.143448e+002, 1.036132e+005
4.143965e+002, 1.035931e+005
4.144483e+002, 1.033220e+005
4.145000e+002, 1.032064e+005
4.145518e+002, 1.030373e+005
4.146035e+002, 1.029810e+005
4.146552e+002, 1.032616e+005
4.147069e+002, 1.032648e+005
4.147586e+002, 1.030740e+005
4.148104e+002, 1.031019e+005
4.148621e+002, 1.033257e+005
4.149138e+002, 1.034542e+005
4.149655e+002, 1.035737e+005
4.150173e+002, 1.033612e+005
4.150690e+002, 1.027711e+005
4.151207e+002, 1.023898e+005
4.151724e+002, 1.024429e+005
4.152242e+002, 1.025346e+005
4.152759e+002, 1.024983e+005
4.153276e+002, 1.025242e+005
4.153793e+002, 1.024169e+005
4.154310e+002, 1.026199e+005
4.154828e+002, 1.027131e+005
4.155345e+002, 1.025646e+005
4.155862e+002, 1.020357e+005
4.156379e+002, 1.022632e+005
4.156897e+002, 1.023313e+005
4.157414e+002, 1.022175e+005
4.157931e+002, 1.022350e+005
4.158448e+002, 1.021442e+005
4.158965e+002, 1.015426e+005
4.159483e+002, 1.013547e+005
4.160000e+002, 1.013734e+005
4.160518e+002, 1.011904e+005
4.161035e+002, 1.012608e+005
4.161552e+002, 1.014901e+005
4.162069e+002, 1.014323e+005
4.162586e+002, 1.014434e+005
4.163104e+002, 1.016268e+005
4.163621e+002, 1.015378e+005
4.164138e+002, 1.013721e+005
4.164655e+002, 1.014550e+005
4.165173e+002, 1.012842e+005
4.165690e+002, 1.010373e+005
4.166207e+002, 1.010290e+005
4.166724e+002, 1.009388e+005
4.167242e+002, 1.011137e+005
4.167759e+002, 1.009280e+005
4.168276e+002, 1.008016e+005
4.168793e+002, 1.008915e+005
4.169310e+002, 1.006228e+005
4.169828e+002, 1.006314e+005
4.170345e+002, 1.006394e+005
4.170862e+002, 1.005612e+005
4.171379e+002, 1.002980e+005
4.171897e+002, 1.005574e+005
4.172414e+002, 1.007000e+005
4.172931e+002, 1.006629e+005
4.173448e+002, 1.002455e+005
4.173965e+002, 9.996874e+004
4.174483e+002, 9.999008e+004
4.175000e+002, 1.000818e+005
4.175518e+002, 1.000440e+005
4.176035e+002, 9.991437e+004
4.176552e+002, 9.996058e+004
4.177069e+002, 1.003494e+005
4.177586e+002, 1.000796e+005
4.178104e+002, 9.979496e+004
4.178621e+002, 9.979186e+004
4.179138e+002, 9.972753e+004
4.179655e+002, 9.967616e+004
4.180173e+002, 9.960624e+004
4.180690e+002, 9.927273e+004
4.181207e+002, 9.958109e+004
4.181724e+002, 9.964980e+004
4.182242e+002, 9.942281e+004
4.182759e+002, 9.908202e+004
4.183276e+002, 9.919952e+004
4.183793e+002, 9.935356e+004
4.184310e+002, 9.937010e+004
4.184828e+002, 9.936013e+004
4.185345e+002, 9.930458e+004
4.185862e+002, 9.925668e+004
4.186379e+002, 9.962449e+004
4.186897e+002, 9.925152e+004
4.187414e+002, 9.939356e+004
4.187931e+002, 9.914205e+004
4.188448e+002, 9.891816e+004
4.188965e+002, 9.873961e+004
4.189483e+002, 9.893445e+004
4.190000e+002, 9.879763e+004
4.190518e+002, 9.869439e+004
4.191035e+002, 9.820652e+004
4.191552e+002, 9.854967e+004
4.192069e+002, 9.845938e+004
4.192586e+002, 9.841664e+004
4.193104e+002, 9.812416e+004
4.193621e+002, 9.848341e+004
4.194138e+002, 9.868914e+004
4.194655e+002, 9.853748e+004
4.195173e+002, 9.836305e+004
4.195690e+002, 9.845784e+004
4.196207e+002, 9.845784e+004
4.196724e+002, 9.845784e+004
4.197242e+002, 9.845784e+004
4.197759e+002, 9.845784e+004
4.198276e+002, 9.845784e+004
4.198793e+002, 9.845784e+004
#ENDOFDATA   : End Of Data and File