#FORMAT	     : EMSA/MAS Spectral Data File
#VERSION     : 1.0
#TITLE       : EELS #C# 125x 344eV I5 B1 3x3s
#DATE        : 
#TIME        : 
#OWNER       : Ansgar Donner
#NPOINTS     : 4096
#NCOLUMNS    : 1
#XUNITS      : eV
#YUNITS      : e-
#DATATYPE    : XY
#XPERCHAN    : 5.172414e-002
#OFFSET      : 2.380690e+002
#SIGNALTYPE  : ELS
#BEAMKV      : 200000.000000
#MAGCAM      : 100000.000000
#EMISSION    : 0.000000
#PROBECUR    : 0.000000
#BEAMDIAM    : 0.000000
#SPECTRUM    : Spectral Data Starts Here
2.380690e+002, 6.752835e+004
2.381207e+002, 6.752835e+004
2.381724e+002, 6.752835e+004
2.382241e+002, 6.752835e+004
2.382759e+002, 6.752835e+004
2.383276e+002, 6.752835e+004
2.383793e+002, 6.752835e+004
2.384310e+002, 6.752835e+004
2.384828e+002, 6.752835e+004
2.385345e+002, 6.752835e+004
2.385862e+002, 6.752835e+004
2.386379e+002, 6.751985e+004
2.386897e+002, 6.752957e+004
2.387414e+002, 6.763718e+004
2.387931e+002, 6.745929e+004
2.388448e+002, 6.725145e+004
2.388966e+002, 6.747320e+004
2.389483e+002, 6.731930e+004
2.390000e+002, 6.720957e+004
2.390517e+002, 6.733682e+004
2.391035e+002, 6.767221e+004
2.391552e+002, 6.755528e+004
2.392069e+002, 6.730422e+004
2.392586e+002, 6.714820e+004
2.393103e+002, 6.710109e+004
2.393621e+002, 6.702842e+004
2.394138e+002, 6.686938e+004
2.394655e+002, 6.681784e+004
2.395172e+002, 6.711383e+004
2.395690e+002, 6.683731e+004
2.396207e+002, 6.654098e+004
2.396724e+002, 6.646106e+004
2.397241e+002, 6.635533e+004
2.397759e+002, 6.646463e+004
2.398276e+002, 6.659305e+004
2.398793e+002, 6.653681e+004
2.399310e+002, 6.653441e+004
2.399828e+002, 6.684986e+004
2.400345e+002, 6.686008e+004
2.400862e+002, 6.694817e+004
2.401379e+002, 6.687838e+004
2.401897e+002, 6.659970e+004
2.402414e+002, 6.643272e+004
2.402931e+002, 6.640787e+004
2.403448e+002, 6.634497e+004
2.403966e+002, 6.629341e+004
2.404483e+002, 6.595910e+004
2.405000e+002, 6.608488e+004
2.405517e+002, 6.622944e+004
2.406035e+002, 6.608791e+004
2.406552e+002, 6.630407e+004
2.407069e+002, 6.650014e+004
2.407586e+002, 6.623091e+004
2.408103e+002, 6.593641e+004
2.408621e+002, 6.594113e+004
2.409138e+002, 6.629757e+004
2.409655e+002, 6.617738e+004
2.410172e+002, 6.601273e+004
2.410690e+002, 6.585971e+004
2.411207e+002, 6.585538e+004
2.411724e+002, 6.552324e+004
2.412241e+002, 6.544358e+004
2.412759e+002, 6.560868e+004
2.413276e+002, 6.537814e+004
2.413793e+002, 6.561002e+004
2.414310e+002, 6.518453e+004
2.414828e+002, 6.510102e+004
2.415345e+002, 6.528061e+004
2.415862e+002, 6.521125e+004
2.416379e+002, 6.506135e+004
2.416897e+002, 6.487844e+004
2.417414e+002, 6.497128e+004
2.417931e+002, 6.534313e+004
2.418448e+002, 6.558229e+004
2.418966e+002, 6.538065e+004
2.419483e+002, 6.518116e+004
2.420000e+002, 6.532989e+004
2.420517e+002, 6.509492e+004
2.421035e+002, 6.535384e+004
2.421552e+002, 6.537133e+004
2.422069e+002, 6.522248e+004
2.422586e+002, 6.520141e+004
2.423103e+002, 6.505794e+004
2.423621e+002, 6.496979e+004
2.424138e+002, 6.502345e+004
2.424655e+002, 6.490685e+004
2.425172e+002, 6.471085e+004
2.425690e+002, 6.480054e+004
2.426207e+002, 6.489611e+004
2.426724e+002, 6.485949e+004
2.427241e+002, 6.480480e+004
2.427759e+002, 6.469394e+004
2.428276e+002, 6.481605e+004
2.428793e+002, 6.482295e+004
2.429310e+002, 6.479125e+004
2.429828e+002, 6.471226e+004
2.430345e+002, 6.456191e+004
2.430862e+002, 6.430340e+004
2.431379e+002, 6.429939e+004
2.431897e+002, 6.430654e+004
2.432414e+002, 6.420096e+004
2.432931e+002, 6.428750e+004
2.433448e+002, 6.439529e+004
2.433966e+002, 6.409911e+004
2.434483e+002, 6.409732e+004
2.435000e+002, 6.393956e+004
2.435517e+002, 6.415522e+004
2.436035e+002, 6.424721e+004
2.436552e+002, 6.424100e+004
2.437069e+002, 6.430180e+004
2.437586e+002, 6.386806e+004
2.438103e+002, 6.387844e+004
2.438621e+002, 6.408069e+004
2.439138e+002, 6.441798e+004
2.439655e+002, 6.433284e+004
2.440172e+002, 6.411196e+004
2.440690e+002, 6.402638e+004
2.441207e+002, 6.392668e+004
2.441724e+002, 6.412636e+004
2.442241e+002, 6.401700e+004
2.442759e+002, 6.372745e+004
2.443276e+002, 6.363465e+004
2.443793e+002, 6.346479e+004
2.444310e+002, 6.327781e+004
2.444828e+002, 6.333993e+004
2.445345e+002, 6.330687e+004
2.445862e+002, 6.337646e+004
2.446379e+002, 6.334431e+004
2.446897e+002, 6.325402e+004
2.447414e+002, 6.334888e+004
2.447931e+002, 6.383718e+004
2.448448e+002, 6.363037e+004
2.448966e+002, 6.345702e+004
2.449483e+002, 6.337150e+004
2.450000e+002, 6.316775e+004
2.450517e+002, 6.300871e+004
2.451035e+002, 6.323217e+004
2.451552e+002, 6.352814e+004
2.452069e+002, 6.344408e+004
2.452586e+002, 6.331645e+004
2.453103e+002, 6.331189e+004
2.453621e+002, 6.312324e+004
2.454138e+002, 6.295159e+004
2.454655e+002, 6.321531e+004
2.455172e+002, 6.317570e+004
2.455690e+002, 6.357453e+004
2.456207e+002, 6.337289e+004
2.456724e+002, 6.299816e+004
2.457241e+002, 6.283809e+004
2.457759e+002, 6.229641e+004
2.458276e+002, 6.227989e+004
2.458793e+002, 6.257784e+004
2.459310e+002, 6.264686e+004
2.459828e+002, 6.274186e+004
2.460345e+002, 6.267923e+004
2.460862e+002, 6.264705e+004
2.461379e+002, 6.246270e+004
2.461897e+002, 6.245755e+004
2.462414e+002, 6.224823e+004
2.462931e+002, 6.240056e+004
2.463448e+002, 6.241170e+004
2.463966e+002, 6.226347e+004
2.464483e+002, 6.220015e+004
2.465000e+002, 6.215604e+004
2.465517e+002, 6.214764e+004
2.466035e+002, 6.243246e+004
2.466552e+002, 6.261346e+004
2.467069e+002, 6.252893e+004
2.467586e+002, 6.226561e+004
2.468103e+002, 6.228486e+004
2.468621e+002, 6.217253e+004
2.469138e+002, 6.232955e+004
2.469655e+002, 6.225462e+004
2.470172e+002, 6.227781e+004
2.470690e+002, 6.196709e+004
2.471207e+002, 6.186107e+004
2.471724e+002, 6.189318e+004
2.472241e+002, 6.199836e+004
2.472759e+002, 6.203018e+004
2.473276e+002, 6.197406e+004
2.473793e+002, 6.202282e+004
2.474310e+002, 6.204388e+004
2.474828e+002, 6.174481e+004
2.475345e+002, 6.172942e+004
2.475862e+002, 6.191223e+004
2.476379e+002, 6.196650e+004
2.476897e+002, 6.187180e+004
2.477414e+002, 6.167675e+004
2.477931e+002, 6.142254e+004
2.478448e+002, 6.131146e+004
2.478966e+002, 6.140793e+004
2.479483e+002, 6.144889e+004
2.480000e+002, 6.164253e+004
2.480517e+002, 6.191156e+004
2.481035e+002, 6.186821e+004
2.481552e+002, 6.146401e+004
2.482069e+002, 6.126347e+004
2.482586e+002, 6.130522e+004
2.483103e+002, 6.126826e+004
2.483621e+002, 6.099256e+004
2.484138e+002, 6.101306e+004
2.484655e+002, 6.135492e+004
2.485172e+002, 6.139379e+004
2.485690e+002, 6.118104e+004
2.486207e+002, 6.098604e+004
2.486724e+002, 6.103704e+004
2.487241e+002, 6.103286e+004
2.487759e+002, 6.092799e+004
2.488276e+002, 6.090505e+004
2.488793e+002, 6.056221e+004
2.489310e+002, 6.062229e+004
2.489828e+002, 6.065999e+004
2.490345e+002, 6.068266e+004
2.490862e+002, 6.072145e+004
2.491379e+002, 6.072649e+004
2.491897e+002, 6.041944e+004
2.492414e+002, 6.050597e+004
2.492931e+002, 6.067295e+004
2.493448e+002, 6.033429e+004
2.493966e+002, 6.041394e+004
2.494483e+002, 6.058338e+004
2.495000e+002, 6.070830e+004
2.495517e+002, 6.048233e+004
2.496035e+002, 6.029607e+004
2.496552e+002, 6.023675e+004
2.497069e+002, 6.021738e+004
2.497586e+002, 6.009545e+004
2.498103e+002, 6.023835e+004
2.498621e+002, 6.039302e+004
2.499138e+002, 6.010058e+004
2.499655e+002, 5.991838e+004
2.500172e+002, 6.010626e+004
2.500690e+002, 6.011529e+004
2.501207e+002, 6.016024e+004
2.501724e+002, 6.017568e+004
2.502241e+002, 6.055088e+004
2.502759e+002, 6.054181e+004
2.503276e+002, 6.045300e+004
2.503793e+002, 6.004687e+004
2.504310e+002, 5.993702e+004
2.504828e+002, 5.993004e+004
2.505345e+002, 5.994175e+004
2.505862e+002, 5.995946e+004
2.506379e+002, 5.992219e+004
2.506897e+002, 6.005935e+004
2.507414e+002, 5.992841e+004
2.507931e+002, 5.957904e+004
2.508448e+002, 5.956216e+004
2.508966e+002, 5.963103e+004
2.509483e+002, 5.951134e+004
2.510000e+002, 5.952722e+004
2.510517e+002, 5.946868e+004
2.511035e+002, 5.951521e+004
2.511552e+002, 5.982000e+004
2.512069e+002, 5.963580e+004
2.512586e+002, 5.946830e+004
2.513103e+002, 5.974738e+004
2.513621e+002, 5.962361e+004
2.514138e+002, 5.954177e+004
2.514655e+002, 5.951787e+004
2.515172e+002, 5.961692e+004
2.515690e+002, 5.966961e+004
2.516207e+002, 5.959627e+004
2.516724e+002, 5.937307e+004
2.517241e+002, 5.913815e+004
2.517759e+002, 5.920229e+004
2.518276e+002, 5.911613e+004
2.518793e+002, 5.914557e+004
2.519310e+002, 5.936007e+004
2.519828e+002, 5.929115e+004
2.520345e+002, 5.925188e+004
2.520862e+002, 5.912176e+004
2.521379e+002, 5.894957e+004
2.521897e+002, 5.880272e+004
2.522414e+002, 5.884152e+004
2.522931e+002, 5.883198e+004
2.523448e+002, 5.897034e+004
2.523966e+002, 5.889319e+004
2.524483e+002, 5.885746e+004
2.525000e+002, 5.853940e+004
2.525517e+002, 5.854588e+004
2.526035e+002, 5.862183e+004
2.526552e+002, 5.861343e+004
2.527069e+002, 5.856201e+004
2.527586e+002, 5.873057e+004
2.528103e+002, 5.856275e+004
2.528621e+002, 5.847601e+004
2.529138e+002, 5.821142e+004
2.529655e+002, 5.821655e+004
2.530172e+002, 5.830755e+004
2.530690e+002, 5.857777e+004
2.531207e+002, 5.873943e+004
2.531724e+002, 5.868161e+004
2.532241e+002, 5.852876e+004
2.532759e+002, 5.860794e+004
2.533276e+002, 5.840737e+004
2.533793e+002, 5.837861e+004
2.534310e+002, 5.841330e+004
2.534828e+002, 5.820248e+004
2.535345e+002, 5.837111e+004
2.535862e+002, 5.862842e+004
2.536379e+002, 5.823949e+004
2.536897e+002, 5.769106e+004
2.537414e+002, 5.782885e+004
2.537931e+002, 5.811360e+004
2.538448e+002, 5.803134e+004
2.538966e+002, 5.819532e+004
2.539483e+002, 5.806721e+004
2.540000e+002, 5.780171e+004
2.540517e+002, 5.770149e+004
2.541035e+002, 5.788180e+004
2.541552e+002, 5.786097e+004
2.542069e+002, 5.781748e+004
2.542586e+002, 5.779798e+004
2.543103e+002, 5.770191e+004
2.543621e+002, 5.743749e+004
2.544138e+002, 5.749456e+004
2.544655e+002, 5.759157e+004
2.545172e+002, 5.745942e+004
2.545690e+002, 5.743259e+004
2.546207e+002, 5.749783e+004
2.546724e+002, 5.739321e+004
2.547241e+002, 5.765826e+004
2.547759e+002, 5.754505e+004
2.548276e+002, 5.765370e+004
2.548793e+002, 5.791614e+004
2.549310e+002, 5.761095e+004
2.549828e+002, 5.743378e+004
2.550345e+002, 5.718648e+004
2.550862e+002, 5.726277e+004
2.551379e+002, 5.731633e+004
2.551897e+002, 5.765162e+004
2.552414e+002, 5.747178e+004
2.552931e+002, 5.740790e+004
2.553448e+002, 5.743412e+004
2.553966e+002, 5.753123e+004
2.554483e+002, 5.754763e+004
2.555000e+002, 5.722636e+004
2.555517e+002, 5.691338e+004
2.556035e+002, 5.729582e+004
2.556552e+002, 5.733098e+004
2.557069e+002, 5.711798e+004
2.557586e+002, 5.687347e+004
2.558103e+002, 5.672352e+004
2.558621e+002, 5.652496e+004
2.559138e+002, 5.659818e+004
2.559655e+002, 5.660314e+004
2.560172e+002, 5.675213e+004
2.560690e+002, 5.673096e+004
2.561207e+002, 5.680873e+004
2.561724e+002, 5.684780e+004
2.562242e+002, 5.694233e+004
2.562759e+002, 5.678467e+004
2.563276e+002, 5.645132e+004
2.563793e+002, 5.635207e+004
2.564310e+002, 5.651750e+004
2.564828e+002, 5.643222e+004
2.565345e+002, 5.654066e+004
2.565862e+002, 5.689398e+004
2.566379e+002, 5.693534e+004
2.566897e+002, 5.670045e+004
2.567414e+002, 5.651113e+004
2.567931e+002, 5.665364e+004
2.568448e+002, 5.657496e+004
2.568965e+002, 5.634127e+004
2.569483e+002, 5.615358e+004
2.570000e+002, 5.636921e+004
2.570517e+002, 5.635154e+004
2.571035e+002, 5.632155e+004
2.571552e+002, 5.621560e+004
2.572069e+002, 5.616161e+004
2.572586e+002, 5.586532e+004
2.573104e+002, 5.591833e+004
2.573621e+002, 5.621453e+004
2.574138e+002, 5.638118e+004
2.574655e+002, 5.613588e+004
2.575172e+002, 5.590163e+004
2.575690e+002, 5.600643e+004
2.576207e+002, 5.626548e+004
2.576724e+002, 5.616248e+004
2.577242e+002, 5.561429e+004
2.577759e+002, 5.547038e+004
2.578276e+002, 5.571370e+004
2.578793e+002, 5.572498e+004
2.579310e+002, 5.591468e+004
2.579828e+002, 5.599888e+004
2.580345e+002, 5.614510e+004
2.580862e+002, 5.616845e+004
2.581379e+002, 5.590203e+004
2.581897e+002, 5.565804e+004
2.582414e+002, 5.563570e+004
2.582931e+002, 5.584270e+004
2.583448e+002, 5.554187e+004
2.583965e+002, 5.531676e+004
2.584483e+002, 5.534052e+004
2.585000e+002, 5.524272e+004
2.585517e+002, 5.542928e+004
2.586035e+002, 5.544221e+004
2.586552e+002, 5.519605e+004
2.587069e+002, 5.540307e+004
2.587586e+002, 5.534952e+004
2.588104e+002, 5.544236e+004
2.588621e+002, 5.549143e+004
2.589138e+002, 5.541666e+004
2.589655e+002, 5.544103e+004
2.590172e+002, 5.537011e+004
2.590690e+002, 5.551727e+004
2.591207e+002, 5.555868e+004
2.591724e+002, 5.511056e+004
2.592242e+002, 5.510812e+004
2.592759e+002, 5.529852e+004
2.593276e+002, 5.507108e+004
2.593793e+002, 5.502872e+004
2.594310e+002, 5.525644e+004
2.594828e+002, 5.547768e+004
2.595345e+002, 5.557743e+004
2.595862e+002, 5.543232e+004
2.596379e+002, 5.534958e+004
2.596897e+002, 5.529667e+004
2.597414e+002, 5.472619e+004
2.597931e+002, 5.462281e+004
2.598448e+002, 5.490770e+004
2.598965e+002, 5.490394e+004
2.599483e+002, 5.475248e+004
2.600000e+002, 5.503304e+004
2.600517e+002, 5.499042e+004
2.601035e+002, 5.484689e+004
2.601552e+002, 5.483554e+004
2.602069e+002, 5.470938e+004
2.602586e+002, 5.482538e+004
2.603104e+002, 5.498996e+004
2.603621e+002, 5.483841e+004
2.604138e+002, 5.456701e+004
2.604655e+002, 5.480625e+004
2.605172e+002, 5.491527e+004
2.605690e+002, 5.468589e+004
2.606207e+002, 5.449448e+004
2.606724e+002, 5.452438e+004
2.607242e+002, 5.456273e+004
2.607759e+002, 5.437595e+004
2.608276e+002, 5.409098e+004
2.608793e+002, 5.385091e+004
2.609310e+002, 5.402719e+004
2.609828e+002, 5.408624e+004
2.610345e+002, 5.412942e+004
2.610862e+002, 5.411836e+004
2.611379e+002, 5.433241e+004
2.611897e+002, 5.431448e+004
2.612414e+002, 5.447715e+004
2.612931e+002, 5.413029e+004
2.613448e+002, 5.388089e+004
2.613965e+002, 5.416986e+004
2.614483e+002, 5.396474e+004
2.615000e+002, 5.417364e+004
2.615517e+002, 5.432001e+004
2.616035e+002, 5.406175e+004
2.616552e+002, 5.390068e+004
2.617069e+002, 5.415788e+004
2.617586e+002, 5.408629e+004
2.618104e+002, 5.356889e+004
2.618621e+002, 5.369663e+004
2.619138e+002, 5.373524e+004
2.619655e+002, 5.351634e+004
2.620172e+002, 5.355130e+004
2.620690e+002, 5.352913e+004
2.621207e+002, 5.350156e+004
2.621724e+002, 5.384131e+004
2.622242e+002, 5.349250e+004
2.622759e+002, 5.311725e+004
2.623276e+002, 5.332908e+004
2.623793e+002, 5.349433e+004
2.624310e+002, 5.335550e+004
2.624828e+002, 5.353496e+004
2.625345e+002, 5.372772e+004
2.625862e+002, 5.373719e+004
2.626379e+002, 5.378879e+004
2.626897e+002, 5.367630e+004
2.627414e+002, 5.349005e+004
2.627931e+002, 5.343055e+004
2.628448e+002, 5.345380e+004
2.628965e+002, 5.327076e+004
2.629483e+002, 5.344170e+004
2.630000e+002, 5.322608e+004
2.630517e+002, 5.339625e+004
2.631035e+002, 5.349202e+004
2.631552e+002, 5.322883e+004
2.632069e+002, 5.302250e+004
2.632586e+002, 5.315847e+004
2.633104e+002, 5.292060e+004
2.633621e+002, 5.283972e+004
2.634138e+002, 5.289099e+004
2.634655e+002, 5.309155e+004
2.635172e+002, 5.309584e+004
2.635690e+002, 5.318224e+004
2.636207e+002, 5.297373e+004
2.636724e+002, 5.282543e+004
2.637242e+002, 5.268002e+004
2.637759e+002, 5.257685e+004
2.638276e+002, 5.271516e+004
2.638793e+002, 5.288848e+004
2.639310e+002, 5.295655e+004
2.639828e+002, 5.268394e+004
2.640345e+002, 5.272596e+004
2.640862e+002, 5.285101e+004
2.641379e+002, 5.293824e+004
2.641897e+002, 5.315514e+004
2.642414e+002, 5.307570e+004
2.642931e+002, 5.281778e+004
2.643448e+002, 5.279487e+004
2.643965e+002, 5.269052e+004
2.644483e+002, 5.257970e+004
2.645000e+002, 5.244591e+004
2.645517e+002, 5.197548e+004
2.646035e+002, 5.207622e+004
2.646552e+002, 5.216713e+004
2.647069e+002, 5.212962e+004
2.647586e+002, 5.209482e+004
2.648104e+002, 5.240014e+004
2.648621e+002, 5.248755e+004
2.649138e+002, 5.247855e+004
2.649655e+002, 5.269493e+004
2.650172e+002, 5.258909e+004
2.650690e+002, 5.238706e+004
2.651207e+002, 5.224569e+004
2.651724e+002, 5.214457e+004
2.652242e+002, 5.201503e+004
2.652759e+002, 5.215901e+004
2.653276e+002, 5.209643e+004
2.653793e+002, 5.200471e+004
2.654310e+002, 5.210132e+004
2.654828e+002, 5.214254e+004
2.655345e+002, 5.206088e+004
2.655862e+002, 5.192742e+004
2.656379e+002, 5.187385e+004
2.656897e+002, 5.180757e+004
2.657414e+002, 5.204023e+004
2.657931e+002, 5.193439e+004
2.658448e+002, 5.200395e+004
2.658965e+002, 5.216362e+004
2.659483e+002, 5.190677e+004
2.660000e+002, 5.172457e+004
2.660517e+002, 5.173521e+004
2.661035e+002, 5.171236e+004
2.661552e+002, 5.154528e+004
2.662069e+002, 5.175899e+004
2.662586e+002, 5.215469e+004
2.663104e+002, 5.188545e+004
2.663621e+002, 5.186682e+004
2.664138e+002, 5.171538e+004
2.664655e+002, 5.156043e+004
2.665172e+002, 5.167364e+004
2.665690e+002, 5.178852e+004
2.666207e+002, 5.166482e+004
2.666724e+002, 5.160476e+004
2.667242e+002, 5.149800e+004
2.667759e+002, 5.157077e+004
2.668276e+002, 5.124502e+004
2.668793e+002, 5.124441e+004
2.669310e+002, 5.147148e+004
2.669828e+002, 5.167713e+004
2.670345e+002, 5.174816e+004
2.670862e+002, 5.125825e+004
2.671379e+002, 5.116292e+004
2.671897e+002, 5.126171e+004
2.672414e+002, 5.143786e+004
2.672931e+002, 5.132648e+004
2.673448e+002, 5.112910e+004
2.673965e+002, 5.129777e+004
2.674483e+002, 5.133101e+004
2.675000e+002, 5.096423e+004
2.675517e+002, 5.081914e+004
2.676035e+002, 5.080050e+004
2.676552e+002, 5.093418e+004
2.677069e+002, 5.106014e+004
2.677586e+002, 5.096107e+004
2.678104e+002, 5.075558e+004
2.678621e+002, 5.080220e+004
2.679138e+002, 5.092021e+004
2.679655e+002, 5.074463e+004
2.680172e+002, 5.071551e+004
2.680690e+002, 5.082605e+004
2.681207e+002, 5.055631e+004
2.681724e+002, 5.076711e+004
2.682242e+002, 5.084441e+004
2.682759e+002, 5.064426e+004
2.683276e+002, 5.061640e+004
2.683793e+002, 5.084930e+004
2.684310e+002, 5.063295e+004
2.684828e+002, 5.082783e+004
2.685345e+002, 5.092878e+004
2.685862e+002, 5.099400e+004
2.686379e+002, 5.079509e+004
2.686897e+002, 5.072564e+004
2.687414e+002, 5.056311e+004
2.687931e+002, 5.064082e+004
2.688448e+002, 5.052269e+004
2.688965e+002, 5.041115e+004
2.689483e+002, 5.036118e+004
2.690000e+002, 5.044600e+004
2.690517e+002, 5.047727e+004
2.691035e+002, 5.055452e+004
2.691552e+002, 5.040743e+004
2.692069e+002, 5.030588e+004
2.692586e+002, 5.015220e+004
2.693104e+002, 4.981914e+004
2.693621e+002, 4.990207e+004
2.694138e+002, 5.011547e+004
2.694655e+002, 5.028338e+004
2.695172e+002, 5.007977e+004
2.695690e+002, 5.008465e+004
2.696207e+002, 5.030588e+004
2.696724e+002, 5.029591e+004
2.697242e+002, 5.039669e+004
2.697759e+002, 5.033607e+004
2.698276e+002, 5.024242e+004
2.698793e+002, 5.004005e+004
2.699310e+002, 5.005596e+004
2.699828e+002, 4.993402e+004
2.700345e+002, 4.987787e+004
2.700862e+002, 4.987847e+004
2.701379e+002, 4.995066e+004
2.701897e+002, 4.997257e+004
2.702414e+002, 4.987691e+004
2.702931e+002, 4.962905e+004
2.703448e+002, 4.956027e+004
2.703965e+002, 4.975633e+004
2.704483e+002, 4.981976e+004
2.705000e+002, 4.966525e+004
2.705517e+002, 4.982523e+004
2.706035e+002, 4.970873e+004
2.706552e+002, 4.977488e+004
2.707069e+002, 4.967321e+004
2.707586e+002, 4.946592e+004
2.708104e+002, 4.928289e+004
2.708621e+002, 4.960478e+004
2.709138e+002, 4.971929e+004
2.709655e+002, 4.950714e+004
2.710172e+002, 4.939788e+004
2.710690e+002, 4.951007e+004
2.711207e+002, 4.963082e+004
2.711724e+002, 4.940629e+004
2.712242e+002, 4.942961e+004
2.712759e+002, 4.964375e+004
2.713276e+002, 4.946842e+004
2.713793e+002, 4.922117e+004
2.714310e+002, 4.934084e+004
2.714828e+002, 4.966056e+004
2.715345e+002, 4.954273e+004
2.715862e+002, 4.925816e+004
2.716379e+002, 4.937259e+004
2.716897e+002, 4.947577e+004
2.717414e+002, 4.931548e+004
2.717931e+002, 4.929961e+004
2.718448e+002, 4.921757e+004
2.718965e+002, 4.918120e+004
2.719483e+002, 4.922985e+004
2.720000e+002, 4.924796e+004
2.720517e+002, 4.929926e+004
2.721035e+002, 4.927897e+004
2.721552e+002, 4.916533e+004
2.722069e+002, 4.891592e+004
2.722586e+002, 4.882220e+004
2.723104e+002, 4.894371e+004
2.723621e+002, 4.904718e+004
2.724138e+002, 4.930573e+004
2.724655e+002, 4.938962e+004
2.725172e+002, 4.921102e+004
2.725690e+002, 4.902229e+004
2.726207e+002, 4.910488e+004
2.726724e+002, 4.901751e+004
2.727242e+002, 4.889473e+004
2.727759e+002, 4.894795e+004
2.728276e+002, 4.892116e+004
2.728793e+002, 4.899733e+004
2.729310e+002, 4.888285e+004
2.729828e+002, 4.909885e+004
2.730345e+002, 4.924976e+004
2.730862e+002, 4.892438e+004
2.731379e+002, 4.877573e+004
2.731897e+002, 4.884307e+004
2.732414e+002, 4.892090e+004
2.732931e+002, 4.892163e+004
2.733448e+002, 4.862414e+004
2.733965e+002, 4.847744e+004
2.734483e+002, 4.853543e+004
2.735000e+002, 4.868930e+004
2.735517e+002, 4.847339e+004
2.736035e+002, 4.842338e+004
2.736552e+002, 4.864475e+004
2.737069e+002, 4.862160e+004
2.737586e+002, 4.866476e+004
2.738104e+002, 4.866371e+004
2.738621e+002, 4.855802e+004
2.739138e+002, 4.846365e+004
2.739655e+002, 4.836781e+004
2.740172e+002, 4.816387e+004
2.740690e+002, 4.819615e+004
2.741207e+002, 4.862190e+004
2.741724e+002, 4.875987e+004
2.742242e+002, 4.846311e+004
2.742759e+002, 4.837365e+004
2.743276e+002, 4.826830e+004
2.743793e+002, 4.847088e+004
2.744310e+002, 4.834610e+004
2.744828e+002, 4.833844e+004
2.745345e+002, 4.848604e+004
2.745862e+002, 4.864135e+004
2.746379e+002, 4.859008e+004
2.746897e+002, 4.837086e+004
2.747414e+002, 4.835570e+004
2.747931e+002, 4.841734e+004
2.748448e+002, 4.834381e+004
2.748965e+002, 4.872159e+004
2.749483e+002, 4.858179e+004
2.750000e+002, 4.869333e+004
2.750517e+002, 4.858918e+004
2.751035e+002, 4.857482e+004
2.751552e+002, 4.890523e+004
2.752069e+002, 4.901694e+004
2.752586e+002, 4.867648e+004
2.753104e+002, 4.835984e+004
2.753621e+002, 4.830904e+004
2.754138e+002, 4.831480e+004
2.754655e+002, 4.836915e+004
2.755172e+002, 4.860366e+004
2.755690e+002, 4.836738e+004
2.756207e+002, 4.831906e+004
2.756724e+002, 4.846932e+004
2.757242e+002, 4.869926e+004
2.757759e+002, 4.871995e+004
2.758276e+002, 4.875428e+004
2.758793e+002, 4.875137e+004
2.759310e+002, 4.872483e+004
2.759828e+002, 4.882887e+004
2.760345e+002, 4.885121e+004
2.760862e+002, 4.884419e+004
2.761379e+002, 4.892631e+004
2.761897e+002, 4.893884e+004
2.762414e+002, 4.903274e+004
2.762931e+002, 4.921138e+004
2.763448e+002, 4.924765e+004
2.763965e+002, 4.884509e+004
2.764483e+002, 4.902199e+004
2.765000e+002, 4.899755e+004
2.765517e+002, 4.875548e+004
2.766035e+002, 4.881342e+004
2.766552e+002, 4.901124e+004
2.767069e+002, 4.914015e+004
2.767586e+002, 4.909011e+004
2.768104e+002, 4.933767e+004
2.768621e+002, 4.950011e+004
2.769138e+002, 4.946582e+004
2.769655e+002, 4.929385e+004
2.770172e+002, 4.921538e+004
2.770690e+002, 4.970105e+004
2.771207e+002, 4.967854e+004
2.771724e+002, 4.960713e+004
2.772242e+002, 4.993781e+004
2.772759e+002, 5.017716e+004
2.773276e+002, 5.022059e+004
2.773793e+002, 5.043045e+004
2.774310e+002, 5.040400e+004
2.774828e+002, 5.071111e+004
2.775345e+002, 5.083238e+004
2.775862e+002, 5.079678e+004
2.776379e+002, 5.098629e+004
2.776897e+002, 5.129605e+004
2.777414e+002, 5.149805e+004
2.777931e+002, 5.166064e+004
2.778448e+002, 5.185209e+004
2.778965e+002, 5.222877e+004
2.779483e+002, 5.272742e+004
2.780000e+002, 5.346830e+004
2.780517e+002, 5.379061e+004
2.781035e+002, 5.422285e+004
2.781552e+002, 5.478419e+004
2.782069e+002, 5.559341e+004
2.782586e+002, 5.602592e+004
2.783104e+002, 5.672969e+004
2.783621e+002, 5.725903e+004
2.784138e+002, 5.824053e+004
2.784655e+002, 5.929016e+004
2.785172e+002, 6.004382e+004
2.785690e+002, 6.093350e+004
2.786207e+002, 6.228636e+004
2.786724e+002, 6.365266e+004
2.787242e+002, 6.516566e+004
2.787759e+002, 6.661005e+004
2.788276e+002, 6.803954e+004
2.788793e+002, 6.992081e+004
2.789310e+002, 7.163245e+004
2.789828e+002, 7.333788e+004
2.790345e+002, 7.558741e+004
2.790862e+002, 7.804735e+004
2.791379e+002, 8.034999e+004
2.791897e+002, 8.315188e+004
2.792414e+002, 8.593548e+004
2.792931e+002, 8.858277e+004
2.793448e+002, 9.190545e+004
2.793965e+002, 9.547068e+004
2.794483e+002, 9.885095e+004
2.795000e+002, 1.026637e+005
2.795517e+002, 1.061732e+005
2.796035e+002, 1.099711e+005
2.796552e+002, 1.141506e+005
2.797069e+002, 1.186137e+005
2.797586e+002, 1.233083e+005
2.798104e+002, 1.281298e+005
2.798621e+002, 1.333860e+005
2.799138e+002, 1.380808e+005
2.799655e+002, 1.425300e+005
2.800172e+002, 1.473778e+005
2.800690e+002, 1.523882e+005
2.801207e+002, 1.576236e+005
2.801724e+002, 1.627036e+005
2.802242e+002, 1.677234e+005
2.802759e+002, 1.732271e+005
2.803276e+002, 1.783641e+005
2.803793e+002, 1.834355e+005
2.804310e+002, 1.885790e+005
2.804828e+002, 1.938561e+005
2.805345e+002, 1.991093e+005
2.805862e+002, 2.047758e+005
2.806379e+002, 2.096196e+005
2.806897e+002, 2.143760e+005
2.807414e+002, 2.188283e+005
2.807931e+002, 2.234576e+005
2.808448e+002, 2.274276e+005
2.808965e+002, 2.315568e+005
2.809483e+002, 2.355347e+005
2.810000e+002, 2.390793e+005
2.810517e+002, 2.426635e+005
2.811035e+002, 2.459077e+005
2.811552e+002, 2.481522e+005
2.812069e+002, 2.506911e+005
2.812586e+002, 2.532078e+005
2.813104e+002, 2.544700e+005
2.813621e+002, 2.558788e+005
2.814138e+002, 2.574409e+005
2.814655e+002, 2.591436e+005
2.815172e+002, 2.602491e+005
2.815690e+002, 2.614400e+005
2.816207e+002, 2.615196e+005
2.816724e+002, 2.619599e+005
2.817242e+002, 2.624908e+005
2.817759e+002, 2.623927e+005
2.818276e+002, 2.616307e+005
2.818793e+002, 2.609074e+005
2.819310e+002, 2.597303e+005
2.819828e+002, 2.592049e+005
2.820345e+002, 2.587949e+005
2.820862e+002, 2.581233e+005
2.821379e+002, 2.572696e+005
2.821897e+002, 2.564218e+005
2.822414e+002, 2.551556e+005
2.822931e+002, 2.543360e+005
2.823448e+002, 2.540372e+005
2.823965e+002, 2.533280e+005
2.824483e+002, 2.524429e+005
2.825000e+002, 2.513884e+005
2.825517e+002, 2.503737e+005
2.826035e+002, 2.491130e+005
2.826552e+002, 2.482553e+005
2.827069e+002, 2.473856e+005
2.827586e+002, 2.462325e+005
2.828104e+002, 2.458416e+005
2.828621e+002, 2.450099e+005
2.829138e+002, 2.437606e+005
2.829655e+002, 2.425657e+005
2.830172e+002, 2.413245e+005
2.830690e+002, 2.406037e+005
2.831207e+002, 2.402227e+005
2.831724e+002, 2.388063e+005
2.832242e+002, 2.382620e+005
2.832759e+002, 2.377071e+005
2.833276e+002, 2.374494e+005
2.833793e+002, 2.362819e+005
2.834310e+002, 2.354182e+005
2.834828e+002, 2.346413e+005
2.835345e+002, 2.342216e+005
2.835862e+002, 2.339648e+005
2.836379e+002, 2.337007e+005
2.836897e+002, 2.334295e+005
2.837414e+002, 2.326236e+005
2.837931e+002, 2.316579e+005
2.838448e+002, 2.309883e+005
2.838965e+002, 2.310098e+005
2.839483e+002, 2.311738e+005
2.840000e+002, 2.310870e+005
2.840517e+002, 2.309865e+005
2.841035e+002, 2.307262e+005
2.841552e+002, 2.304490e+005
2.842069e+002, 2.303188e+005
2.842586e+002, 2.305710e+005
2.843104e+002, 2.310248e+005
2.843621e+002, 2.316395e+005
2.844138e+002, 2.316194e+005
2.844655e+002, 2.320561e+005
2.845172e+002, 2.324436e+005
2.845690e+002, 2.329511e+005
2.846207e+002, 2.338698e+005
2.846724e+002, 2.346820e+005
2.847242e+002, 2.353333e+005
2.847759e+002, 2.363304e+005
2.848276e+002, 2.382626e+005
2.848793e+002, 2.393383e+005
2.849310e+002, 2.396699e+005
2.849828e+002, 2.407079e+005
2.850345e+002, 2.423513e+005
2.850862e+002, 2.434301e+005
2.851379e+002, 2.450302e+005
2.851897e+002, 2.464312e+005
2.852414e+002, 2.478183e+005
2.852931e+002, 2.494437e+005
2.853448e+002, 2.511690e+005
2.853965e+002, 2.534142e+005
2.854483e+002, 2.551801e+005
2.855000e+002, 2.569835e+005
2.855517e+002, 2.591071e+005
2.856035e+002, 2.615210e+005
2.856552e+002, 2.637357e+005
2.857069e+002, 2.659962e+005
2.857586e+002, 2.682894e+005
2.858104e+002, 2.710409e+005
2.858621e+002, 2.737621e+005
2.859138e+002, 2.763363e+005
2.859655e+002, 2.795784e+005
2.860172e+002, 2.826977e+005
2.860690e+002, 2.857320e+005
2.861207e+002, 2.890016e+005
2.861724e+002, 2.919639e+005
2.862242e+002, 2.953423e+005
2.862759e+002, 2.979647e+005
2.863276e+002, 3.004450e+005
2.863793e+002, 3.038163e+005
2.864310e+002, 3.075728e+005
2.864828e+002, 3.120515e+005
2.865345e+002, 3.158199e+005
2.865862e+002, 3.194113e+005
2.866379e+002, 3.230618e+005
2.866897e+002, 3.265220e+005
2.867414e+002, 3.300360e+005
2.867931e+002, 3.335992e+005
2.868448e+002, 3.376774e+005
2.868965e+002, 3.414877e+005
2.869483e+002, 3.449343e+005
2.870000e+002, 3.476126e+005
2.870517e+002, 3.512109e+005
2.871035e+002, 3.554957e+005
2.871552e+002, 3.595958e+005
2.872069e+002, 3.629416e+005
2.872586e+002, 3.664001e+005
2.873104e+002, 3.703740e+005
2.873621e+002, 3.744891e+005
2.874138e+002, 3.779114e+005
2.874655e+002, 3.818503e+005
2.875172e+002, 3.840498e+005
2.875690e+002, 3.865629e+005
2.876207e+002, 3.900093e+005
2.876724e+002, 3.928354e+005
2.877242e+002, 3.961803e+005
2.877759e+002, 3.992068e+005
2.878276e+002, 4.019080e+005
2.878793e+002, 4.040873e+005
2.879310e+002, 4.063510e+005
2.879828e+002, 4.094320e+005
2.880345e+002, 4.122424e+005
2.880862e+002, 4.144008e+005
2.881379e+002, 4.164997e+005
2.881897e+002, 4.190460e+005
2.882414e+002, 4.209654e+005
2.882931e+002, 4.228229e+005
2.883448e+002, 4.245288e+005
2.883965e+002, 4.264674e+005
2.884483e+002, 4.281073e+005
2.885000e+002, 4.300208e+005
2.885517e+002, 4.319077e+005
2.886035e+002, 4.340091e+005
2.886552e+002, 4.357606e+005
2.887069e+002, 4.365696e+005
2.887586e+002, 4.379068e+005
2.888104e+002, 4.394262e+005
2.888621e+002, 4.411039e+005
2.889138e+002, 4.418864e+005
2.889655e+002, 4.426656e+005
2.890172e+002, 4.439686e+005
2.890690e+002, 4.451419e+005
2.891207e+002, 4.464454e+005
2.891724e+002, 4.476488e+005
2.892242e+002, 4.490944e+005
2.892759e+002, 4.497203e+005
2.893276e+002, 4.498995e+005
2.893793e+002, 4.503315e+005
2.894310e+002, 4.517087e+005
2.894828e+002, 4.519038e+005
2.895345e+002, 4.523485e+005
2.895862e+002, 4.525532e+005
2.896379e+002, 4.530060e+005
2.896897e+002, 4.537580e+005
2.897414e+002, 4.545623e+005
2.897931e+002, 4.552631e+005
2.898448e+002, 4.558752e+005
2.898965e+002, 4.560949e+005
2.899483e+002, 4.563019e+005
2.900000e+002, 4.562490e+005
2.900517e+002, 4.571113e+005
2.901035e+002, 4.580720e+005
2.901552e+002, 4.579507e+005
2.902069e+002, 4.576346e+005
2.902586e+002, 4.577831e+005
2.903104e+002, 4.586489e+005
2.903621e+002, 4.596330e+005
2.904138e+002, 4.598431e+005
2.904655e+002, 4.592502e+005
2.905172e+002, 4.597115e+005
2.905690e+002, 4.601433e+005
2.906207e+002, 4.606074e+005
2.906724e+002, 4.611581e+005
2.907242e+002, 4.619464e+005
2.907759e+002, 4.622238e+005
2.908276e+002, 4.620033e+005
2.908793e+002, 4.627205e+005
2.909310e+002, 4.637269e+005
2.909828e+002, 4.636477e+005
2.910345e+002, 4.634033e+005
2.910862e+002, 4.629432e+005
2.911379e+002, 4.627150e+005
2.911897e+002, 4.630835e+005
2.912414e+002, 4.634912e+005
2.912931e+002, 4.637603e+005
2.913448e+002, 4.633101e+005
2.913965e+002, 4.637792e+005
2.914483e+002, 4.636343e+005
2.915000e+002, 4.640284e+005
2.915517e+002, 4.648806e+005
2.916035e+002, 4.653138e+005
2.916552e+002, 4.654848e+005
2.917069e+002, 4.661121e+005
2.917586e+002, 4.664038e+005
2.918104e+002, 4.654760e+005
2.918621e+002, 4.662973e+005
2.919138e+002, 4.670393e+005
2.919655e+002, 4.669554e+005
2.920172e+002, 4.665774e+005
2.920690e+002, 4.661268e+005
2.921207e+002, 4.661436e+005
2.921724e+002, 4.665520e+005
2.922242e+002, 4.669887e+005
2.922759e+002, 4.672696e+005
2.923276e+002, 4.676166e+005
2.923793e+002, 4.680767e+005
2.924310e+002, 4.688478e+005
2.924828e+002, 4.690961e+005
2.925345e+002, 4.690097e+005
2.925862e+002, 4.691782e+005
2.926379e+002, 4.700703e+005
2.926897e+002, 4.704916e+005
2.927414e+002, 4.707582e+005
2.927931e+002, 4.705909e+005
2.928448e+002, 4.703808e+005
2.928965e+002, 4.702254e+005
2.929483e+002, 4.700269e+005
2.930000e+002, 4.706233e+005
2.930517e+002, 4.713168e+005
2.931035e+002, 4.714016e+005
2.931552e+002, 4.710552e+005
2.932069e+002, 4.706573e+005
2.932586e+002, 4.709318e+005
2.933104e+002, 4.711980e+005
2.933621e+002, 4.717832e+005
2.934138e+002, 4.718383e+005
2.934655e+002, 4.712829e+005
2.935172e+002, 4.708307e+005
2.935690e+002, 4.708050e+005
2.936207e+002, 4.710641e+005
2.936724e+002, 4.717183e+005
2.937242e+002, 4.718092e+005
2.937759e+002, 4.712601e+005
2.938276e+002, 4.716702e+005
2.938793e+002, 4.723349e+005
2.939310e+002, 4.727742e+005
2.939828e+002, 4.730846e+005
2.940345e+002, 4.728438e+005
2.940862e+002, 4.720075e+005
2.941379e+002, 4.715260e+005
2.941897e+002, 4.710235e+005
2.942414e+002, 4.710003e+005
2.942931e+002, 4.712483e+005
2.943448e+002, 4.716826e+005
2.943965e+002, 4.720786e+005
2.944483e+002, 4.723648e+005
2.945000e+002, 4.722438e+005
2.945517e+002, 4.717366e+005
2.946035e+002, 4.713471e+005
2.946552e+002, 4.709408e+005
2.947069e+002, 4.707481e+005
2.947586e+002, 4.708595e+005
2.948104e+002, 4.712061e+005
2.948621e+002, 4.710142e+005
2.949138e+002, 4.706412e+005
2.949655e+002, 4.705369e+005
2.950172e+002, 4.699619e+005
2.950690e+002, 4.704252e+005
2.951207e+002, 4.708464e+005
2.951724e+002, 4.702280e+005
2.952242e+002, 4.705086e+005
2.952759e+002, 4.700184e+005
2.953276e+002, 4.698563e+005
2.953793e+002, 4.688699e+005
2.954310e+002, 4.686286e+005
2.954828e+002, 4.689079e+005
2.955345e+002, 4.693548e+005
2.955862e+002, 4.692245e+005
2.956379e+002, 4.690655e+005
2.956897e+002, 4.680519e+005
2.957414e+002, 4.672528e+005
2.957931e+002, 4.668230e+005
2.958448e+002, 4.667529e+005
2.958965e+002, 4.666949e+005
2.959483e+002, 4.662363e+005
2.960000e+002, 4.662072e+005
2.960517e+002, 4.662619e+005
2.961035e+002, 4.657907e+005
2.961552e+002, 4.649736e+005
2.962069e+002, 4.639604e+005
2.962586e+002, 4.642713e+005
2.963104e+002, 4.633264e+005
2.963621e+002, 4.624708e+005
2.964138e+002, 4.626072e+005
2.964655e+002, 4.625418e+005
2.965172e+002, 4.622081e+005
2.965690e+002, 4.616344e+005
2.966207e+002, 4.615693e+005
2.966724e+002, 4.614182e+005
2.967242e+002, 4.608774e+005
2.967759e+002, 4.598820e+005
2.968276e+002, 4.592643e+005
2.968793e+002, 4.585177e+005
2.969310e+002, 4.581133e+005
2.969828e+002, 4.580176e+005
2.970345e+002, 4.579321e+005
2.970862e+002, 4.578617e+005
2.971379e+002, 4.572595e+005
2.971897e+002, 4.567263e+005
2.972414e+002, 4.564402e+005
2.972931e+002, 4.559754e+005
2.973448e+002, 4.548421e+005
2.973965e+002, 4.543073e+005
2.974483e+002, 4.537511e+005
2.975000e+002, 4.531758e+005
2.975517e+002, 4.524895e+005
2.976035e+002, 4.520674e+005
2.976552e+002, 4.516521e+005
2.977069e+002, 4.514530e+005
2.977586e+002, 4.505492e+005
2.978104e+002, 4.503853e+005
2.978621e+002, 4.502575e+005
2.979138e+002, 4.501019e+005
2.979655e+002, 4.492923e+005
2.980172e+002, 4.486823e+005
2.980690e+002, 4.480456e+005
2.981207e+002, 4.474993e+005
2.981724e+002, 4.470041e+005
2.982242e+002, 4.465010e+005
2.982759e+002, 4.459257e+005
2.983276e+002, 4.452457e+005
2.983793e+002, 4.438012e+005
2.984310e+002, 4.430630e+005
2.984828e+002, 4.428765e+005
2.985345e+002, 4.423824e+005
2.985862e+002, 4.417620e+005
2.986379e+002, 4.412122e+005
2.986897e+002, 4.409381e+005
2.987414e+002, 4.402676e+005
2.987931e+002, 4.402961e+005
2.988448e+002, 4.398443e+005
2.988965e+002, 4.385844e+005
2.989483e+002, 4.377590e+005
2.990000e+002, 4.366452e+005
2.990517e+002, 4.364548e+005
2.991035e+002, 4.356375e+005
2.991552e+002, 4.346867e+005
2.992069e+002, 4.343627e+005
2.992586e+002, 4.347051e+005
2.993104e+002, 4.342628e+005
2.993621e+002, 4.338048e+005
2.994138e+002, 4.329061e+005
2.994655e+002, 4.322739e+005
2.995172e+002, 4.308438e+005
2.995690e+002, 4.295367e+005
2.996207e+002, 4.288431e+005
2.996724e+002, 4.288070e+005
2.997242e+002, 4.283457e+005
2.997759e+002, 4.270936e+005
2.998276e+002, 4.256842e+005
2.998793e+002, 4.252778e+005
2.999310e+002, 4.246776e+005
2.999828e+002, 4.246257e+005
3.000345e+002, 4.241233e+005
3.000862e+002, 4.234527e+005
3.001379e+002, 4.226581e+005
3.001897e+002, 4.222006e+005
3.002414e+002, 4.226519e+005
3.002931e+002, 4.219477e+005
3.003448e+002, 4.208208e+005
3.003965e+002, 4.196233e+005
3.004483e+002, 4.185519e+005
3.005000e+002, 4.182653e+005
3.005517e+002, 4.175393e+005
3.006035e+002, 4.162352e+005
3.006552e+002, 4.160780e+005
3.007069e+002, 4.155963e+005
3.007586e+002, 4.145487e+005
3.008104e+002, 4.138485e+005
3.008621e+002, 4.130894e+005
3.009138e+002, 4.120900e+005
3.009655e+002, 4.113935e+005
3.010172e+002, 4.097620e+005
3.010690e+002, 4.088620e+005
3.011207e+002, 4.083163e+005
3.011724e+002, 4.080846e+005
3.012242e+002, 4.069720e+005
3.012759e+002, 4.062423e+005
3.013276e+002, 4.053391e+005
3.013793e+002, 4.045041e+005
3.014310e+002, 4.038458e+005
3.014828e+002, 4.032813e+005
3.015345e+002, 4.024648e+005
3.015862e+002, 4.013817e+005
3.016379e+002, 4.006948e+005
3.016897e+002, 3.998872e+005
3.017414e+002, 3.993561e+005
3.017931e+002, 3.988292e+005
3.018448e+002, 3.982902e+005
3.018965e+002, 3.973871e+005
3.019483e+002, 3.954514e+005
3.020000e+002, 3.944623e+005
3.020517e+002, 3.934677e+005
3.021035e+002, 3.927572e+005
3.021552e+002, 3.920101e+005
3.022069e+002, 3.910682e+005
3.022586e+002, 3.898935e+005
3.023104e+002, 3.893081e+005
3.023621e+002, 3.885726e+005
3.024138e+002, 3.873572e+005
3.024655e+002, 3.865298e+005
3.025172e+002, 3.856443e+005
3.025690e+002, 3.853926e+005
3.026207e+002, 3.843227e+005
3.026724e+002, 3.835398e+005
3.027242e+002, 3.824818e+005
3.027759e+002, 3.815325e+005
3.028276e+002, 3.806432e+005
3.028793e+002, 3.793808e+005
3.029310e+002, 3.777151e+005
3.029828e+002, 3.763093e+005
3.030345e+002, 3.758892e+005
3.030862e+002, 3.756310e+005
3.031379e+002, 3.749993e+005
3.031897e+002, 3.733231e+005
3.032414e+002, 3.725779e+005
3.032931e+002, 3.722134e+005
3.033448e+002, 3.715821e+005
3.033965e+002, 3.700364e+005
3.034483e+002, 3.690106e+005
3.035000e+002, 3.679649e+005
3.035517e+002, 3.670575e+005
3.036035e+002, 3.663206e+005
3.036552e+002, 3.648423e+005
3.037069e+002, 3.641060e+005
3.037586e+002, 3.635893e+005
3.038104e+002, 3.624228e+005
3.038621e+002, 3.610105e+005
3.039138e+002, 3.602968e+005
3.039655e+002, 3.589628e+005
3.040172e+002, 3.579890e+005
3.040690e+002, 3.569647e+005
3.041207e+002, 3.555257e+005
3.041724e+002, 3.548643e+005
3.042242e+002, 3.543385e+005
3.042759e+002, 3.539223e+005
3.043276e+002, 3.524383e+005
3.043793e+002, 3.508969e+005
3.044310e+002, 3.500053e+005
3.044828e+002, 3.489872e+005
3.045345e+002, 3.486093e+005
3.045862e+002, 3.476859e+005
3.046379e+002, 3.463013e+005
3.046897e+002, 3.457847e+005
3.047414e+002, 3.443978e+005
3.047931e+002, 3.434704e+005
3.048448e+002, 3.425158e+005
3.048965e+002, 3.414138e+005
3.049483e+002, 3.406985e+005
3.050000e+002, 3.401445e+005
3.050517e+002, 3.385325e+005
3.051035e+002, 3.375039e+005
3.051552e+002, 3.368372e+005
3.052069e+002, 3.358187e+005
3.052586e+002, 3.347474e+005
3.053104e+002, 3.343390e+005
3.053621e+002, 3.333520e+005
3.054138e+002, 3.322997e+005
3.054655e+002, 3.308383e+005
3.055172e+002, 3.297714e+005
3.055690e+002, 3.283165e+005
3.056207e+002, 3.275342e+005
3.056724e+002, 3.269780e+005
3.057242e+002, 3.265348e+005
3.057759e+002, 3.259703e+005
3.058276e+002, 3.252998e+005
3.058793e+002, 3.244104e+005
3.059310e+002, 3.235756e+005
3.059828e+002, 3.227945e+005
3.060345e+002, 3.216992e+005
3.060862e+002, 3.205775e+005
3.061379e+002, 3.195606e+005
3.061897e+002, 3.182592e+005
3.062414e+002, 3.172260e+005
3.062931e+002, 3.166099e+005
3.063448e+002, 3.159722e+005
3.063965e+002, 3.154268e+005
3.064483e+002, 3.149655e+005
3.065000e+002, 3.140721e+005
3.065517e+002, 3.129766e+005
3.066035e+002, 3.122719e+005
3.066552e+002, 3.112095e+005
3.067069e+002, 3.109918e+005
3.067586e+002, 3.097550e+005
3.068104e+002, 3.085077e+005
3.068621e+002, 3.078244e+005
3.069138e+002, 3.068757e+005
3.069655e+002, 3.060438e+005
3.070172e+002, 3.055323e+005
3.070690e+002, 3.050461e+005
3.071207e+002, 3.042468e+005
3.071724e+002, 3.038071e+005
3.072242e+002, 3.025334e+005
3.072759e+002, 3.011705e+005
3.073276e+002, 3.003652e+005
3.073793e+002, 3.003938e+005
3.074310e+002, 2.997092e+005
3.074828e+002, 2.988566e+005
3.075345e+002, 2.980973e+005
3.075862e+002, 2.977076e+005
3.076379e+002, 2.971474e+005
3.076897e+002, 2.968260e+005
3.077414e+002, 2.960959e+005
3.077931e+002, 2.956558e+005
3.078448e+002, 2.950445e+005
3.078965e+002, 2.939179e+005
3.079483e+002, 2.930696e+005
3.080000e+002, 2.924319e+005
3.080517e+002, 2.917274e+005
3.081035e+002, 2.908685e+005
3.081552e+002, 2.906106e+005
3.082069e+002, 2.905835e+005
3.082586e+002, 2.897048e+005
3.083104e+002, 2.884635e+005
3.083621e+002, 2.881997e+005
3.084138e+002, 2.878693e+005
3.084655e+002, 2.871480e+005
3.085172e+002, 2.865159e+005
3.085690e+002, 2.861592e+005
3.086207e+002, 2.853255e+005
3.086724e+002, 2.847780e+005
3.087242e+002, 2.846790e+005
3.087759e+002, 2.849248e+005
3.088276e+002, 2.845579e+005
3.088793e+002, 2.842571e+005
3.089310e+002, 2.828609e+005
3.089828e+002, 2.821889e+005
3.090345e+002, 2.820203e+005
3.090862e+002, 2.812592e+005
3.091379e+002, 2.805970e+005
3.091897e+002, 2.805714e+005
3.092414e+002, 2.803034e+005
3.092931e+002, 2.799574e+005
3.093448e+002, 2.791574e+005
3.093965e+002, 2.785522e+005
3.094483e+002, 2.782883e+005
3.095000e+002, 2.781058e+005
3.095517e+002, 2.775294e+005
3.096035e+002, 2.769320e+005
3.096552e+002, 2.765384e+005
3.097069e+002, 2.765395e+005
3.097586e+002, 2.760536e+005
3.098104e+002, 2.748319e+005
3.098621e+002, 2.745075e+005
3.099138e+002, 2.744682e+005
3.099655e+002, 2.743971e+005
3.100172e+002, 2.741751e+005
3.100690e+002, 2.735759e+005
3.101207e+002, 2.736137e+005
3.101724e+002, 2.738567e+005
3.102242e+002, 2.733258e+005
3.102759e+002, 2.721497e+005
3.103276e+002, 2.720451e+005
3.103793e+002, 2.717511e+005
3.104310e+002, 2.713653e+005
3.104828e+002, 2.711147e+005
3.105345e+002, 2.705668e+005
3.105862e+002, 2.706596e+005
3.106379e+002, 2.705628e+005
3.106897e+002, 2.702493e+005
3.107414e+002, 2.701458e+005
3.107931e+002, 2.695539e+005
3.108448e+002, 2.689284e+005
3.108965e+002, 2.681988e+005
3.109483e+002, 2.678856e+005
3.110000e+002, 2.678970e+005
3.110517e+002, 2.676608e+005
3.111035e+002, 2.672603e+005
3.111552e+002, 2.668719e+005
3.112069e+002, 2.666768e+005
3.112586e+002, 2.663396e+005
3.113104e+002, 2.655579e+005
3.113621e+002, 2.650891e+005
3.114138e+002, 2.646964e+005
3.114655e+002, 2.644138e+005
3.115172e+002, 2.643082e+005
3.115690e+002, 2.639720e+005
3.116207e+002, 2.639340e+005
3.116724e+002, 2.639967e+005
3.117242e+002, 2.638598e+005
3.117759e+002, 2.637101e+005
3.118276e+002, 2.633052e+005
3.118793e+002, 2.629554e+005
3.119310e+002, 2.625379e+005
3.119828e+002, 2.628011e+005
3.120345e+002, 2.622805e+005
3.120862e+002, 2.625147e+005
3.121379e+002, 2.620504e+005
3.121897e+002, 2.618945e+005
3.122414e+002, 2.615919e+005
3.122931e+002, 2.615835e+005
3.123448e+002, 2.611410e+005
3.123965e+002, 2.607576e+005
3.124483e+002, 2.606713e+005
3.125000e+002, 2.609012e+005
3.125517e+002, 2.608883e+005
3.126035e+002, 2.611287e+005
3.126552e+002, 2.607486e+005
3.127069e+002, 2.603465e+005
3.127586e+002, 2.592607e+005
3.128104e+002, 2.591087e+005
3.128621e+002, 2.595013e+005
3.129138e+002, 2.594882e+005
3.129655e+002, 2.591994e+005
3.130172e+002, 2.593036e+005
3.130690e+002, 2.594549e+005
3.131207e+002, 2.591342e+005
3.131724e+002, 2.586849e+005
3.132242e+002, 2.583354e+005
3.132759e+002, 2.581330e+005
3.133276e+002, 2.581526e+005
3.133793e+002, 2.577067e+005
3.134310e+002, 2.576389e+005
3.134828e+002, 2.578037e+005
3.135345e+002, 2.574108e+005
3.135862e+002, 2.572374e+005
3.136379e+002, 2.574795e+005
3.136897e+002, 2.573483e+005
3.137414e+002, 2.579770e+005
3.137931e+002, 2.575225e+005
3.138448e+002, 2.571018e+005
3.138965e+002, 2.569767e+005
3.139483e+002, 2.566327e+005
3.140000e+002, 2.566081e+005
3.140517e+002, 2.567189e+005
3.141035e+002, 2.563274e+005
3.141552e+002, 2.561171e+005
3.142069e+002, 2.562844e+005
3.142586e+002, 2.558465e+005
3.143104e+002, 2.557229e+005
3.143621e+002, 2.556822e+005
3.144138e+002, 2.555652e+005
3.144655e+002, 2.557697e+005
3.145172e+002, 2.562990e+005
3.145690e+002, 2.563775e+005
3.146207e+002, 2.552952e+005
3.146724e+002, 2.543745e+005
3.147242e+002, 2.547663e+005
3.147759e+002, 2.551722e+005
3.148276e+002, 2.550614e+005
3.148793e+002, 2.550437e+005
3.149310e+002, 2.547894e+005
3.149828e+002, 2.546762e+005
3.150345e+002, 2.546973e+005
3.150862e+002, 2.546374e+005
3.151379e+002, 2.548396e+005
3.151897e+002, 2.549550e+005
3.152414e+002, 2.549172e+005
3.152931e+002, 2.546824e+005
3.153448e+002, 2.540781e+005
3.153965e+002, 2.538811e+005
3.154483e+002, 2.532850e+005
3.155000e+002, 2.529910e+005
3.155517e+002, 2.530123e+005
3.156035e+002, 2.537950e+005
3.156552e+002, 2.532680e+005
3.157069e+002, 2.530864e+005
3.157586e+002, 2.530402e+005
3.158104e+002, 2.533535e+005
3.158621e+002, 2.534429e+005
3.159138e+002, 2.534757e+005
3.159655e+002, 2.530764e+005
3.160172e+002, 2.529251e+005
3.160690e+002, 2.531829e+005
3.161207e+002, 2.532053e+005
3.161724e+002, 2.533746e+005
3.162242e+002, 2.530757e+005
3.162759e+002, 2.526767e+005
3.163276e+002, 2.528158e+005
3.163793e+002, 2.523856e+005
3.164310e+002, 2.520918e+005
3.164828e+002, 2.512500e+005
3.165345e+002, 2.508850e+005
3.165862e+002, 2.513669e+005
3.166379e+002, 2.512502e+005
3.166897e+002, 2.512953e+005
3.167414e+002, 2.513817e+005
3.167931e+002, 2.514434e+005
3.168448e+002, 2.509964e+005
3.168965e+002, 2.514288e+005
3.169483e+002, 2.515250e+005
3.170000e+002, 2.518153e+005
3.170517e+002, 2.514889e+005
3.171035e+002, 2.508633e+005
3.171552e+002, 2.506210e+005
3.172069e+002, 2.507083e+005
3.172586e+002, 2.514667e+005
3.173104e+002, 2.517416e+005
3.173621e+002, 2.516487e+005
3.174138e+002, 2.510851e+005
3.174655e+002, 2.508303e+005
3.175172e+002, 2.510564e+005
3.175690e+002, 2.508247e+005
3.176207e+002, 2.505242e+005
3.176724e+002, 2.506128e+005
3.177242e+002, 2.510274e+005
3.177759e+002, 2.508134e+005
3.178276e+002, 2.508917e+005
3.178793e+002, 2.511363e+005
3.179310e+002, 2.510241e+005
3.179828e+002, 2.505364e+005
3.180345e+002, 2.502994e+005
3.180862e+002, 2.503548e+005
3.181379e+002, 2.501708e+005
3.181897e+002, 2.497873e+005
3.182414e+002, 2.498147e+005
3.182931e+002, 2.503236e+005
3.183448e+002, 2.502716e+005
3.183965e+002, 2.500739e+005
3.184483e+002, 2.494555e+005
3.185000e+002, 2.491301e+005
3.185517e+002, 2.491266e+005
3.186035e+002, 2.496588e+005
3.186552e+002, 2.499111e+005
3.187069e+002, 2.498166e+005
3.187586e+002, 2.492684e+005
3.188104e+002, 2.489875e+005
3.188621e+002, 2.491219e+005
3.189138e+002, 2.493222e+005
3.189655e+002, 2.496033e+005
3.190172e+002, 2.497439e+005
3.190690e+002, 2.496498e+005
3.191207e+002, 2.496001e+005
3.191724e+002, 2.495863e+005
3.192242e+002, 2.491301e+005
3.192759e+002, 2.493784e+005
3.193276e+002, 2.490657e+005
3.193793e+002, 2.488477e+005
3.194310e+002, 2.486115e+005
3.194828e+002, 2.484142e+005
3.195345e+002, 2.481220e+005
3.195862e+002, 2.481291e+005
3.196379e+002, 2.484931e+005
3.196897e+002, 2.486925e+005
3.197414e+002, 2.485275e+005
3.197931e+002, 2.483129e+005
3.198448e+002, 2.482225e+005
3.198965e+002, 2.485641e+005
3.199483e+002, 2.483270e+005
3.200000e+002, 2.485690e+005
3.200517e+002, 2.481071e+005
3.201035e+002, 2.479443e+005
3.201552e+002, 2.480433e+005
3.202069e+002, 2.484204e+005
3.202586e+002, 2.485316e+005
3.203104e+002, 2.489209e+005
3.203621e+002, 2.485735e+005
3.204138e+002, 2.488057e+005
3.204655e+002, 2.484005e+005
3.205172e+002, 2.485325e+005
3.205690e+002, 2.483222e+005
3.206207e+002, 2.482508e+005
3.206724e+002, 2.482084e+005
3.207242e+002, 2.480448e+005
3.207759e+002, 2.475806e+005
3.208276e+002, 2.476784e+005
3.208793e+002, 2.475645e+005
3.209310e+002, 2.477238e+005
3.209828e+002, 2.478880e+005
3.210345e+002, 2.476054e+005
3.210862e+002, 2.475789e+005
3.211379e+002, 2.477570e+005
3.211897e+002, 2.470177e+005
3.212414e+002, 2.469586e+005
3.212931e+002, 2.474716e+005
3.213448e+002, 2.477304e+005
3.213965e+002, 2.471449e+005
3.214483e+002, 2.469550e+005
3.215000e+002, 2.467609e+005
3.215517e+002, 2.471857e+005
3.216035e+002, 2.473432e+005
3.216552e+002, 2.472363e+005
3.217069e+002, 2.470580e+005
3.217586e+002, 2.472655e+005
3.218104e+002, 2.471002e+005
3.218621e+002, 2.468788e+005
3.219138e+002, 2.470190e+005
3.219655e+002, 2.466611e+005
3.220172e+002, 2.464839e+005
3.220690e+002, 2.463404e+005
3.221207e+002, 2.464586e+005
3.221724e+002, 2.465367e+005
3.222242e+002, 2.461570e+005
3.222759e+002, 2.464496e+005
3.223276e+002, 2.461331e+005
3.223793e+002, 2.463274e+005
3.224310e+002, 2.462083e+005
3.224828e+002, 2.461322e+005
3.225345e+002, 2.457751e+005
3.225862e+002, 2.454876e+005
3.226379e+002, 2.462166e+005
3.226897e+002, 2.463337e+005
3.227414e+002, 2.459296e+005
3.227931e+002, 2.458630e+005
3.228448e+002, 2.462490e+005
3.228965e+002, 2.455417e+005
3.229483e+002, 2.454360e+005
3.230000e+002, 2.453548e+005
3.230517e+002, 2.453195e+005
3.231035e+002, 2.452815e+005
3.231552e+002, 2.455144e+005
3.232069e+002, 2.448026e+005
3.232586e+002, 2.445848e+005
3.233104e+002, 2.451023e+005
3.233621e+002, 2.445591e+005
3.234138e+002, 2.442586e+005
3.234655e+002, 2.444640e+005
3.235172e+002, 2.448828e+005
3.235690e+002, 2.451798e+005
3.236207e+002, 2.447893e+005
3.236724e+002, 2.445425e+005
3.237242e+002, 2.445010e+005
3.237759e+002, 2.447261e+005
3.238276e+002, 2.447083e+005
3.238793e+002, 2.444757e+005
3.239310e+002, 2.446155e+005
3.239828e+002, 2.450003e+005
3.240345e+002, 2.450403e+005
3.240862e+002, 2.444483e+005
3.241379e+002, 2.445552e+005
3.241897e+002, 2.445154e+005
3.242414e+002, 2.439095e+005
3.242931e+002, 2.436934e+005
3.243448e+002, 2.435075e+005
3.243965e+002, 2.438410e+005
3.244483e+002, 2.435496e+005
3.245000e+002, 2.433815e+005
3.245517e+002, 2.433281e+005
3.246035e+002, 2.429256e+005
3.246552e+002, 2.428303e+005
3.247069e+002, 2.432613e+005
3.247586e+002, 2.430857e+005
3.248104e+002, 2.429901e+005
3.248621e+002, 2.429428e+005
3.249138e+002, 2.424003e+005
3.249655e+002, 2.421365e+005
3.250172e+002, 2.421251e+005
3.250690e+002, 2.420257e+005
3.251207e+002, 2.419133e+005
3.251724e+002, 2.421401e+005
3.252242e+002, 2.416717e+005
3.252759e+002, 2.413172e+005
3.253276e+002, 2.416491e+005
3.253793e+002, 2.418583e+005
3.254310e+002, 2.415629e+005
3.254828e+002, 2.414555e+005
3.255345e+002, 2.415374e+005
3.255862e+002, 2.410092e+005
3.256379e+002, 2.411441e+005
3.256897e+002, 2.409284e+005
3.257414e+002, 2.406542e+005
3.257931e+002, 2.407308e+005
3.258448e+002, 2.409758e+005
3.258965e+002, 2.410103e+005
3.259483e+002, 2.405619e+005
3.260000e+002, 2.402516e+005
3.260517e+002, 2.404477e+005
3.261035e+002, 2.402726e+005
3.261552e+002, 2.396881e+005
3.262069e+002, 2.396327e+005
3.262586e+002, 2.399113e+005
3.263104e+002, 2.398030e+005
3.263621e+002, 2.388734e+005
3.264138e+002, 2.385194e+005
3.264655e+002, 2.390151e+005
3.265172e+002, 2.386930e+005
3.265690e+002, 2.385230e+005
3.266207e+002, 2.386490e+005
3.266724e+002, 2.392760e+005
3.267242e+002, 2.390345e+005
3.267759e+002, 2.386627e+005
3.268276e+002, 2.387526e+005
3.268793e+002, 2.385681e+005
3.269310e+002, 2.373124e+005
3.269828e+002, 2.371489e+005
3.270345e+002, 2.377893e+005
3.270862e+002, 2.381559e+005
3.271379e+002, 2.380179e+005
3.271897e+002, 2.377110e+005
3.272414e+002, 2.374646e+005
3.272931e+002, 2.370008e+005
3.273448e+002, 2.369034e+005
3.273965e+002, 2.361973e+005
3.274483e+002, 2.358177e+005
3.275000e+002, 2.354438e+005
3.275517e+002, 2.356022e+005
3.276035e+002, 2.354201e+005
3.276552e+002, 2.353808e+005
3.277069e+002, 2.355230e+005
3.277586e+002, 2.355118e+005
3.278104e+002, 2.358011e+005
3.278621e+002, 2.359905e+005
3.279138e+002, 2.360359e+005
3.279655e+002, 2.353928e+005
3.280172e+002, 2.348883e+005
3.280690e+002, 2.348409e+005
3.281207e+002, 2.348538e+005
3.281724e+002, 2.339671e+005
3.282242e+002, 2.333075e+005
3.282759e+002, 2.335282e+005
3.283276e+002, 2.336688e+005
3.283793e+002, 2.334830e+005
3.284310e+002, 2.331712e+005
3.284828e+002, 2.327395e+005
3.285345e+002, 2.326419e+005
3.285862e+002, 2.325400e+005
3.286379e+002, 2.320955e+005
3.286897e+002, 2.320780e+005
3.287414e+002, 2.321203e+005
3.287931e+002, 2.321335e+005
3.288448e+002, 2.324397e+005
3.288965e+002, 2.318986e+005
3.289483e+002, 2.318166e+005
3.290000e+002, 2.316410e+005
3.290517e+002, 2.314592e+005
3.291035e+002, 2.316012e+005
3.291552e+002, 2.315649e+005
3.292069e+002, 2.312014e+005
3.292586e+002, 2.307785e+005
3.293104e+002, 2.303429e+005
3.293621e+002, 2.302848e+005
3.294138e+002, 2.305255e+005
3.294655e+002, 2.307538e+005
3.295172e+002, 2.302005e+005
3.295690e+002, 2.299593e+005
3.296207e+002, 2.297007e+005
3.296724e+002, 2.298359e+005
3.297242e+002, 2.293618e+005
3.297759e+002, 2.289832e+005
3.298276e+002, 2.285513e+005
3.298793e+002, 2.282714e+005
3.299310e+002, 2.281706e+005
3.299828e+002, 2.280095e+005
3.300345e+002, 2.282353e+005
3.300862e+002, 2.279455e+005
3.301379e+002, 2.274963e+005
3.301897e+002, 2.273780e+005
3.302414e+002, 2.271737e+005
3.302931e+002, 2.275335e+005
3.303448e+002, 2.272380e+005
3.303965e+002, 2.272366e+005
3.304483e+002, 2.267595e+005
3.305000e+002, 2.266602e+005
3.305517e+002, 2.263646e+005
3.306035e+002, 2.263187e+005
3.306552e+002, 2.263752e+005
3.307069e+002, 2.260289e+005
3.307586e+002, 2.247269e+005
3.308104e+002, 2.248243e+005
3.308621e+002, 2.253865e+005
3.309138e+002, 2.257702e+005
3.309655e+002, 2.257370e+005
3.310172e+002, 2.255083e+005
3.310690e+002, 2.243835e+005
3.311207e+002, 2.243068e+005
3.311724e+002, 2.241175e+005
3.312242e+002, 2.239453e+005
3.312759e+002, 2.243975e+005
3.313276e+002, 2.241657e+005
3.313793e+002, 2.241626e+005
3.314310e+002, 2.240470e+005
3.314828e+002, 2.231380e+005
3.315345e+002, 2.227755e+005
3.315862e+002, 2.224016e+005
3.316379e+002, 2.220453e+005
3.316897e+002, 2.219059e+005
3.317414e+002, 2.224563e+005
3.317931e+002, 2.228804e+005
3.318448e+002, 2.226391e+005
3.318965e+002, 2.220241e+005
3.319483e+002, 2.214781e+005
3.320000e+002, 2.217329e+005
3.320517e+002, 2.212435e+005
3.321035e+002, 2.214960e+005
3.321552e+002, 2.217126e+005
3.322069e+002, 2.216381e+005
3.322586e+002, 2.212071e+005
3.323104e+002, 2.208157e+005
3.323621e+002, 2.204190e+005
3.324138e+002, 2.200917e+005
3.324655e+002, 2.202918e+005
3.325172e+002, 2.199892e+005
3.325690e+002, 2.204477e+005
3.326207e+002, 2.202324e+005
3.326724e+002, 2.198807e+005
3.327242e+002, 2.193923e+005
3.327759e+002, 2.192039e+005
3.328276e+002, 2.190395e+005
3.328793e+002, 2.188166e+005
3.329310e+002, 2.183773e+005
3.329828e+002, 2.177826e+005
3.330345e+002, 2.173846e+005
3.330862e+002, 2.176163e+005
3.331379e+002, 2.183102e+005
3.331897e+002, 2.175193e+005
3.332414e+002, 2.174321e+005
3.332931e+002, 2.177686e+005
3.333448e+002, 2.174735e+005
3.333965e+002, 2.172181e+005
3.334483e+002, 2.168965e+005
3.335000e+002, 2.170625e+005
3.335517e+002, 2.166001e+005
3.336035e+002, 2.162383e+005
3.336552e+002, 2.161366e+005
3.337069e+002, 2.156098e+005
3.337586e+002, 2.153067e+005
3.338104e+002, 2.155744e+005
3.338621e+002, 2.158811e+005
3.339138e+002, 2.155798e+005
3.339655e+002, 2.156905e+005
3.340172e+002, 2.155184e+005
3.340690e+002, 2.152264e+005
3.341207e+002, 2.146564e+005
3.341724e+002, 2.143687e+005
3.342242e+002, 2.141764e+005
3.342759e+002, 2.141093e+005
3.343276e+002, 2.139975e+005
3.343793e+002, 2.141762e+005
3.344310e+002, 2.141267e+005
3.344828e+002, 2.140468e+005
3.345345e+002, 2.134162e+005
3.345862e+002, 2.128892e+005
3.346379e+002, 2.127743e+005
3.346897e+002, 2.128570e+005
3.347414e+002, 2.126346e+005
3.347931e+002, 2.124865e+005
3.348448e+002, 2.125008e+005
3.348965e+002, 2.121280e+005
3.349483e+002, 2.123372e+005
3.350000e+002, 2.126553e+005
3.350517e+002, 2.123160e+005
3.351035e+002, 2.122851e+005
3.351552e+002, 2.119854e+005
3.352069e+002, 2.115208e+005
3.352586e+002, 2.106405e+005
3.353104e+002, 2.108163e+005
3.353621e+002, 2.109899e+005
3.354138e+002, 2.109091e+005
3.354655e+002, 2.104818e+005
3.355172e+002, 2.104718e+005
3.355690e+002, 2.100305e+005
3.356207e+002, 2.098433e+005
3.356724e+002, 2.092048e+005
3.357242e+002, 2.090504e+005
3.357759e+002, 2.090901e+005
3.358276e+002, 2.093384e+005
3.358793e+002, 2.086743e+005
3.359310e+002, 2.088056e+005
3.359828e+002, 2.084825e+005
3.360345e+002, 2.083677e+005
3.360862e+002, 2.086002e+005
3.361379e+002, 2.089082e+005
3.361897e+002, 2.091058e+005
3.362414e+002, 2.087134e+005
3.362931e+002, 2.082468e+005
3.363448e+002, 2.079980e+005
3.363965e+002, 2.080973e+005
3.364483e+002, 2.080439e+005
3.365000e+002, 2.080478e+005
3.365517e+002, 2.076986e+005
3.366035e+002, 2.073804e+005
3.366552e+002, 2.073267e+005
3.367069e+002, 2.070151e+005
3.367586e+002, 2.067348e+005
3.368104e+002, 2.065747e+005
3.368621e+002, 2.067189e+005
3.369138e+002, 2.071395e+005
3.369655e+002, 2.067359e+005
3.370172e+002, 2.062750e+005
3.370690e+002, 2.059423e+005
3.371207e+002, 2.057049e+005
3.371724e+002, 2.058284e+005
3.372242e+002, 2.057805e+005
3.372759e+002, 2.059760e+005
3.373276e+002, 2.054071e+005
3.373793e+002, 2.051605e+005
3.374310e+002, 2.050869e+005
3.374828e+002, 2.055459e+005
3.375345e+002, 2.052074e+005
3.375862e+002, 2.046403e+005
3.376379e+002, 2.048441e+005
3.376897e+002, 2.047813e+005
3.377414e+002, 2.045346e+005
3.377931e+002, 2.045079e+005
3.378448e+002, 2.042291e+005
3.378965e+002, 2.044826e+005
3.379483e+002, 2.045920e+005
3.380000e+002, 2.042102e+005
3.380517e+002, 2.044583e+005
3.381035e+002, 2.043885e+005
3.381552e+002, 2.039847e+005
3.382069e+002, 2.034809e+005
3.382586e+002, 2.030101e+005
3.383104e+002, 2.026848e+005
3.383621e+002, 2.024888e+005
3.384138e+002, 2.025733e+005
3.384655e+002, 2.023319e+005
3.385172e+002, 2.022986e+005
3.385690e+002, 2.020633e+005
3.386207e+002, 2.018442e+005
3.386724e+002, 2.020216e+005
3.387242e+002, 2.013362e+005
3.387759e+002, 2.009638e+005
3.388276e+002, 2.011985e+005
3.388793e+002, 2.011364e+005
3.389310e+002, 2.007289e+005
3.389828e+002, 2.013468e+005
3.390345e+002, 2.015804e+005
3.390862e+002, 2.013652e+005
3.391379e+002, 2.012071e+005
3.391897e+002, 2.008497e+005
3.392414e+002, 2.002707e+005
3.392931e+002, 2.001158e+005
3.393448e+002, 1.999425e+005
3.393965e+002, 2.004489e+005
3.394483e+002, 2.004234e+005
3.395000e+002, 2.002535e+005
3.395517e+002, 2.007486e+005
3.396035e+002, 2.002894e+005
3.396552e+002, 2.000421e+005
3.397069e+002, 2.004066e+005
3.397586e+002, 2.003728e+005
3.398104e+002, 1.994534e+005
3.398621e+002, 1.989592e+005
3.399138e+002, 1.989935e+005
3.399655e+002, 1.989508e+005
3.400172e+002, 1.988119e+005
3.400690e+002, 1.985301e+005
3.401207e+002, 1.983332e+005
3.401724e+002, 1.983778e+005
3.402242e+002, 1.984057e+005
3.402759e+002, 1.975748e+005
3.403276e+002, 1.972479e+005
3.403793e+002, 1.979086e+005
3.404310e+002, 1.982155e+005
3.404828e+002, 1.978118e+005
3.405345e+002, 1.975322e+005
3.405862e+002, 1.976467e+005
3.406379e+002, 1.976977e+005
3.406897e+002, 1.975894e+005
3.407414e+002, 1.978274e+005
3.407931e+002, 1.974776e+005
3.408448e+002, 1.968161e+005
3.408965e+002, 1.967660e+005
3.409483e+002, 1.972341e+005
3.410000e+002, 1.970231e+005
3.410517e+002, 1.963649e+005
3.411035e+002, 1.963132e+005
3.411552e+002, 1.968732e+005
3.412069e+002, 1.964889e+005
3.412586e+002, 1.963405e+005
3.413104e+002, 1.963334e+005
3.413621e+002, 1.961430e+005
3.414138e+002, 1.958877e+005
3.414655e+002, 1.960119e+005
3.415172e+002, 1.959925e+005
3.415690e+002, 1.954457e+005
3.416207e+002, 1.957130e+005
3.416724e+002, 1.953674e+005
3.417242e+002, 1.951910e+005
3.417759e+002, 1.957550e+005
3.418276e+002, 1.953829e+005
3.418793e+002, 1.951948e+005
3.419310e+002, 1.956207e+005
3.419828e+002, 1.953503e+005
3.420345e+002, 1.950674e+005
3.420862e+002, 1.948706e+005
3.421379e+002, 1.946291e+005
3.421897e+002, 1.944900e+005
3.422414e+002, 1.945611e+005
3.422931e+002, 1.946692e+005
3.423448e+002, 1.948837e+005
3.423965e+002, 1.944776e+005
3.424483e+002, 1.945329e+005
3.425000e+002, 1.942516e+005
3.425517e+002, 1.944336e+005
3.426035e+002, 1.947203e+005
3.426552e+002, 1.944253e+005
3.427069e+002, 1.940669e+005
3.427586e+002, 1.939386e+005
3.428104e+002, 1.941862e+005
3.428621e+002, 1.940686e+005
3.429138e+002, 1.938602e+005
3.429655e+002, 1.937802e+005
3.430172e+002, 1.933698e+005
3.430690e+002, 1.933803e+005
3.431207e+002, 1.929835e+005
3.431724e+002, 1.929244e+005
3.432242e+002, 1.927048e+005
3.432759e+002, 1.930296e+005
3.433276e+002, 1.931029e+005
3.433793e+002, 1.930305e+005
3.434310e+002, 1.930305e+005
3.434828e+002, 1.932398e+005
3.435345e+002, 1.928353e+005
3.435862e+002, 1.931558e+005
3.436379e+002, 1.928902e+005
3.436897e+002, 1.924367e+005
3.437414e+002, 1.923427e+005
3.437931e+002, 1.924328e+005
3.438448e+002, 1.920113e+005
3.438965e+002, 1.920444e+005
3.439483e+002, 1.923684e+005
3.440000e+002, 1.922948e+005
3.440517e+002, 1.919990e+005
3.441035e+002, 1.917232e+005
3.441552e+002, 1.914758e+005
3.442069e+002, 1.911684e+005
3.442586e+002, 1.911176e+005
3.443104e+002, 1.912823e+005
3.443621e+002, 1.914116e+005
3.444138e+002, 1.910099e+005
3.444655e+002, 1.908967e+005
3.445172e+002, 1.906997e+005
3.445690e+002, 1.906096e+005
3.446207e+002, 1.903029e+005
3.446724e+002, 1.903885e+005
3.447242e+002, 1.900592e+005
3.447759e+002, 1.898495e+005
3.448276e+002, 1.898956e+005
3.448793e+002, 1.897986e+005
3.449310e+002, 1.899068e+005
3.449828e+002, 1.900548e+005
3.450345e+002, 1.900689e+005
3.450862e+002, 1.900896e+005
3.451379e+002, 1.896604e+005
3.451897e+002, 1.892129e+005
3.452414e+002, 1.890927e+005
3.452931e+002, 1.893844e+005
3.453448e+002, 1.894378e+005
3.453965e+002, 1.895619e+005
3.454483e+002, 1.893543e+005
3.455000e+002, 1.895836e+005
3.455517e+002, 1.891858e+005
3.456035e+002, 1.889923e+005
3.456552e+002, 1.884711e+005
3.457069e+002, 1.885195e+005
3.457586e+002, 1.884515e+005
3.458104e+002, 1.883913e+005
3.458621e+002, 1.884068e+005
3.459138e+002, 1.883035e+005
3.459655e+002, 1.881962e+005
3.460172e+002, 1.882841e+005
3.460690e+002, 1.883555e+005
3.461207e+002, 1.878860e+005
3.461724e+002, 1.875736e+005
3.462242e+002, 1.874961e+005
3.462759e+002, 1.874468e+005
3.463276e+002, 1.878604e+005
3.463793e+002, 1.881498e+005
3.464310e+002, 1.879733e+005
3.464828e+002, 1.879014e+005
3.465345e+002, 1.878775e+005
3.465862e+002, 1.874408e+005
3.466379e+002, 1.875153e+005
3.466897e+002, 1.875036e+005
3.467414e+002, 1.874807e+005
3.467931e+002, 1.875482e+005
3.468448e+002, 1.871395e+005
3.468965e+002, 1.871914e+005
3.469483e+002, 1.874987e+005
3.470000e+002, 1.877103e+005
3.470517e+002, 1.874416e+005
3.471035e+002, 1.870856e+005
3.471552e+002, 1.870774e+005
3.472069e+002, 1.869011e+005
3.472586e+002, 1.871153e+005
3.473104e+002, 1.864252e+005
3.473621e+002, 1.862842e+005
3.474138e+002, 1.863542e+005
3.474655e+002, 1.865861e+005
3.475172e+002, 1.870609e+005
3.475690e+002, 1.869855e+005
3.476207e+002, 1.869510e+005
3.476724e+002, 1.866303e+005
3.477242e+002, 1.865750e+005
3.477759e+002, 1.869853e+005
3.478276e+002, 1.875100e+005
3.478793e+002, 1.875857e+005
3.479310e+002, 1.873619e+005
3.479828e+002, 1.868152e+005
3.480345e+002, 1.862903e+005
3.480862e+002, 1.862133e+005
3.481379e+002, 1.864685e+005
3.481897e+002, 1.865917e+005
3.482414e+002, 1.868920e+005
3.482931e+002, 1.867677e+005
3.483448e+002, 1.868150e+005
3.483965e+002, 1.866733e+005
3.484483e+002, 1.862843e+005
3.485000e+002, 1.862863e+005
3.485517e+002, 1.858284e+005
3.486035e+002, 1.859559e+005
3.486552e+002, 1.859934e+005
3.487069e+002, 1.858102e+005
3.487586e+002, 1.859281e+005
3.488104e+002, 1.857644e+005
3.488621e+002, 1.856838e+005
3.489138e+002, 1.855804e+005
3.489655e+002, 1.855310e+005
3.490172e+002, 1.850830e+005
3.490690e+002, 1.843028e+005
3.491207e+002, 1.841514e+005
3.491724e+002, 1.840854e+005
3.492242e+002, 1.840268e+005
3.492759e+002, 1.837491e+005
3.493276e+002, 1.837939e+005
3.493793e+002, 1.839878e+005
3.494310e+002, 1.843895e+005
3.494828e+002, 1.837739e+005
3.495345e+002, 1.836069e+005
3.495862e+002, 1.835404e+005
3.496379e+002, 1.835742e+005
3.496897e+002, 1.829860e+005
3.497414e+002, 1.826204e+005
3.497931e+002, 1.825023e+005
3.498448e+002, 1.827643e+005
3.498965e+002, 1.832536e+005
3.499483e+002, 1.835174e+005
3.500000e+002, 1.833611e+005
3.500517e+002, 1.831012e+005
3.501035e+002, 1.832225e+005
3.501552e+002, 1.833352e+005
3.502069e+002, 1.831972e+005
3.502586e+002, 1.829073e+005
3.503104e+002, 1.829394e+005
3.503621e+002, 1.833380e+005
3.504138e+002, 1.834898e+005
3.504655e+002, 1.835650e+005
3.505172e+002, 1.833065e+005
3.505690e+002, 1.832041e+005
3.506207e+002, 1.831172e+005
3.506724e+002, 1.829606e+005
3.507242e+002, 1.836179e+005
3.507759e+002, 1.838050e+005
3.508276e+002, 1.837592e+005
3.508793e+002, 1.831484e+005
3.509310e+002, 1.829641e+005
3.509828e+002, 1.831865e+005
3.510345e+002, 1.833290e+005
3.510862e+002, 1.827451e+005
3.511379e+002, 1.828193e+005
3.511897e+002, 1.829119e+005
3.512414e+002, 1.831925e+005
3.512931e+002, 1.828368e+005
3.513448e+002, 1.826294e+005
3.513965e+002, 1.830486e+005
3.514483e+002, 1.835603e+005
3.515000e+002, 1.832633e+005
3.515517e+002, 1.832315e+005
3.516035e+002, 1.834345e+005
3.516552e+002, 1.836375e+005
3.517069e+002, 1.832181e+005
3.517586e+002, 1.829236e+005
3.518104e+002, 1.827141e+005
3.518621e+002, 1.826051e+005
3.519138e+002, 1.825823e+005
3.519655e+002, 1.828100e+005
3.520172e+002, 1.825788e+005
3.520690e+002, 1.822649e+005
3.521207e+002, 1.819974e+005
3.521724e+002, 1.817997e+005
3.522242e+002, 1.824453e+005
3.522759e+002, 1.825496e+005
3.523276e+002, 1.819905e+005
3.523793e+002, 1.816682e+005
3.524310e+002, 1.814073e+005
3.524828e+002, 1.809535e+005
3.525345e+002, 1.810270e+005
3.525862e+002, 1.811109e+005
3.526379e+002, 1.805679e+005
3.526897e+002, 1.805223e+005
3.527414e+002, 1.802694e+005
3.527931e+002, 1.802755e+005
3.528448e+002, 1.796995e+005
3.528965e+002, 1.793987e+005
3.529483e+002, 1.790878e+005
3.530000e+002, 1.792797e+005
3.530517e+002, 1.791883e+005
3.531035e+002, 1.786988e+005
3.531552e+002, 1.784945e+005
3.532069e+002, 1.788033e+005
3.532586e+002, 1.787640e+005
3.533104e+002, 1.786595e+005
3.533621e+002, 1.788676e+005
3.534138e+002, 1.786228e+005
3.534655e+002, 1.783150e+005
3.535172e+002, 1.783783e+005
3.535690e+002, 1.783456e+005
3.536207e+002, 1.782198e+005
3.536724e+002, 1.781105e+005
3.537242e+002, 1.780401e+005
3.537759e+002, 1.781409e+005
3.538276e+002, 1.782604e+005
3.538793e+002, 1.781470e+005
3.539310e+002, 1.781727e+005
3.539828e+002, 1.777279e+005
3.540345e+002, 1.776642e+005
3.540862e+002, 1.776173e+005
3.541379e+002, 1.774426e+005
3.541897e+002, 1.776395e+005
3.542414e+002, 1.779139e+005
3.542931e+002, 1.776239e+005
3.543448e+002, 1.771170e+005
3.543965e+002, 1.768124e+005
3.544483e+002, 1.768129e+005
3.545000e+002, 1.773032e+005
3.545517e+002, 1.773925e+005
3.546035e+002, 1.770913e+005
3.546552e+002, 1.768849e+005
3.547069e+002, 1.766767e+005
3.547586e+002, 1.766606e+005
3.548104e+002, 1.763051e+005
3.548621e+002, 1.763599e+005
3.549138e+002, 1.766878e+005
3.549655e+002, 1.766758e+005
3.550172e+002, 1.768636e+005
3.550690e+002, 1.766299e+005
3.551207e+002, 1.766279e+005
3.551724e+002, 1.766686e+005
3.552242e+002, 1.763865e+005
3.552759e+002, 1.758210e+005
3.553276e+002, 1.762627e+005
3.553793e+002, 1.769436e+005
3.554310e+002, 1.765086e+005
3.554828e+002, 1.759899e+005
3.555345e+002, 1.763166e+005
3.555862e+002, 1.768956e+005
3.556379e+002, 1.766166e+005
3.556897e+002, 1.762140e+005
3.557414e+002, 1.759405e+005
3.557931e+002, 1.757801e+005
3.558448e+002, 1.759096e+005
3.558965e+002, 1.754439e+005
3.559483e+002, 1.749157e+005
3.560000e+002, 1.743467e+005
3.560517e+002, 1.748121e+005
3.561035e+002, 1.751059e+005
3.561552e+002, 1.752944e+005
3.562069e+002, 1.750295e+005
3.562586e+002, 1.748314e+005
3.563104e+002, 1.747562e+005
3.563621e+002, 1.746498e+005
3.564138e+002, 1.745893e+005
3.564655e+002, 1.744832e+005
3.565172e+002, 1.746040e+005
3.565690e+002, 1.745473e+005
3.566207e+002, 1.740998e+005
3.566724e+002, 1.738848e+005
3.567242e+002, 1.743871e+005
3.567759e+002, 1.743846e+005
3.568276e+002, 1.740457e+005
3.568793e+002, 1.742066e+005
3.569310e+002, 1.744534e+005
3.569828e+002, 1.739890e+005
3.570345e+002, 1.741112e+005
3.570862e+002, 1.742706e+005
3.571379e+002, 1.740718e+005
3.571897e+002, 1.739185e+005
3.572414e+002, 1.736491e+005
3.572931e+002, 1.732315e+005
3.573448e+002, 1.738140e+005
3.573965e+002, 1.741681e+005
3.574483e+002, 1.739329e+005
3.575000e+002, 1.738967e+005
3.575517e+002, 1.736505e+005
3.576035e+002, 1.733472e+005
3.576552e+002, 1.733275e+005
3.577069e+002, 1.730540e+005
3.577586e+002, 1.729468e+005
3.578104e+002, 1.729238e+005
3.578621e+002, 1.727871e+005
3.579138e+002, 1.723685e+005
3.579655e+002, 1.725310e+005
3.580172e+002, 1.726258e+005
3.580690e+002, 1.728172e+005
3.581207e+002, 1.727948e+005
3.581724e+002, 1.727283e+005
3.582242e+002, 1.725066e+005
3.582759e+002, 1.729247e+005
3.583276e+002, 1.726497e+005
3.583793e+002, 1.726844e+005
3.584310e+002, 1.726973e+005
3.584828e+002, 1.724058e+005
3.585345e+002, 1.723040e+005
3.585862e+002, 1.723025e+005
3.586379e+002, 1.726601e+005
3.586897e+002, 1.725820e+005
3.587414e+002, 1.720650e+005
3.587931e+002, 1.717358e+005
3.588448e+002, 1.714941e+005
3.588965e+002, 1.718715e+005
3.589483e+002, 1.713956e+005
3.590000e+002, 1.716388e+005
3.590517e+002, 1.718502e+005
3.591035e+002, 1.711920e+005
3.591552e+002, 1.707541e+005
3.592069e+002, 1.713356e+005
3.592586e+002, 1.717113e+005
3.593104e+002, 1.715022e+005
3.593621e+002, 1.715468e+005
3.594138e+002, 1.716336e+005
3.594655e+002, 1.715430e+005
3.595172e+002, 1.717049e+005
3.595690e+002, 1.715813e+005
3.596207e+002, 1.705017e+005
3.596724e+002, 1.698483e+005
3.597242e+002, 1.700423e+005
3.597759e+002, 1.705637e+005
3.598276e+002, 1.705493e+005
3.598793e+002, 1.708419e+005
3.599310e+002, 1.708919e+005
3.599828e+002, 1.711078e+005
3.600345e+002, 1.707542e+005
3.600862e+002, 1.710404e+005
3.601379e+002, 1.708133e+005
3.601897e+002, 1.708703e+005
3.602414e+002, 1.703675e+005
3.602931e+002, 1.695695e+005
3.603448e+002, 1.692228e+005
3.603965e+002, 1.692521e+005
3.604483e+002, 1.700194e+005
3.605000e+002, 1.702104e+005
3.605517e+002, 1.701918e+005
3.606035e+002, 1.700893e+005
3.606552e+002, 1.700664e+005
3.607069e+002, 1.700076e+005
3.607586e+002, 1.699953e+005
3.608104e+002, 1.696297e+005
3.608621e+002, 1.695372e+005
3.609138e+002, 1.691224e+005
3.609655e+002, 1.688023e+005
3.610172e+002, 1.685520e+005
3.610690e+002, 1.688138e+005
3.611207e+002, 1.689592e+005
3.611724e+002, 1.691217e+005
3.612242e+002, 1.689614e+005
3.612759e+002, 1.690606e+005
3.613276e+002, 1.690710e+005
3.613793e+002, 1.689608e+005
3.614310e+002, 1.687101e+005
3.614828e+002, 1.691648e+005
3.615345e+002, 1.692364e+005
3.615862e+002, 1.685609e+005
3.616379e+002, 1.680824e+005
3.616897e+002, 1.677877e+005
3.617414e+002, 1.678396e+005
3.617931e+002, 1.677896e+005
3.618448e+002, 1.677171e+005
3.618965e+002, 1.676825e+005
3.619483e+002, 1.677485e+005
3.620000e+002, 1.678343e+005
3.620517e+002, 1.676443e+005
3.621035e+002, 1.674042e+005
3.621552e+002, 1.677554e+005
3.622069e+002, 1.680829e+005
3.622586e+002, 1.677564e+005
3.623104e+002, 1.679774e+005
3.623621e+002, 1.677287e+005
3.624138e+002, 1.677894e+005
3.624655e+002, 1.677146e+005
3.625172e+002, 1.672915e+005
3.625690e+002, 1.672072e+005
3.626207e+002, 1.672078e+005
3.626724e+002, 1.672316e+005
3.627242e+002, 1.668066e+005
3.627759e+002, 1.667681e+005
3.628276e+002, 1.668193e+005
3.628793e+002, 1.667386e+005
3.629310e+002, 1.667768e+005
3.629828e+002, 1.669475e+005
3.630345e+002, 1.667817e+005
3.630862e+002, 1.667158e+005
3.631379e+002, 1.668479e+005
3.631897e+002, 1.668733e+005
3.632414e+002, 1.661244e+005
3.632931e+002, 1.664602e+005
3.633448e+002, 1.662650e+005
3.633965e+002, 1.659765e+005
3.634483e+002, 1.660964e+005
3.635000e+002, 1.667469e+005
3.635517e+002, 1.667240e+005
3.636035e+002, 1.661973e+005
3.636552e+002, 1.661096e+005
3.637069e+002, 1.662144e+005
3.637586e+002, 1.661724e+005
3.638104e+002, 1.661523e+005
3.638621e+002, 1.660824e+005
3.639138e+002, 1.653030e+005
3.639655e+002, 1.649973e+005
3.640172e+002, 1.655328e+005
3.640690e+002, 1.658980e+005
3.641207e+002, 1.659829e+005
3.641724e+002, 1.652570e+005
3.642242e+002, 1.656039e+005
3.642759e+002, 1.658823e+005
3.643276e+002, 1.657826e+005
3.643793e+002, 1.656410e+005
3.644310e+002, 1.651585e+005
3.644828e+002, 1.656473e+005
3.645345e+002, 1.654877e+005
3.645862e+002, 1.649380e+005
3.646379e+002, 1.648948e+005
3.646897e+002, 1.644889e+005
3.647414e+002, 1.640666e+005
3.647931e+002, 1.642605e+005
3.648448e+002, 1.642404e+005
3.648965e+002, 1.639853e+005
3.649483e+002, 1.639882e+005
3.650000e+002, 1.641591e+005
3.650517e+002, 1.641413e+005
3.651035e+002, 1.641884e+005
3.651552e+002, 1.641684e+005
3.652069e+002, 1.639615e+005
3.652586e+002, 1.640478e+005
3.653104e+002, 1.640518e+005
3.653621e+002, 1.640992e+005
3.654138e+002, 1.640884e+005
3.654655e+002, 1.638544e+005
3.655172e+002, 1.640885e+005
3.655690e+002, 1.640528e+005
3.656207e+002, 1.637764e+005
3.656724e+002, 1.633957e+005
3.657242e+002, 1.632947e+005
3.657759e+002, 1.632955e+005
3.658276e+002, 1.630602e+005
3.658793e+002, 1.629847e+005
3.659310e+002, 1.628279e+005
3.659828e+002, 1.628016e+005
3.660345e+002, 1.634946e+005
3.660862e+002, 1.630352e+005
3.661379e+002, 1.625609e+005
3.661897e+002, 1.624158e+005
3.662414e+002, 1.624649e+005
3.662931e+002, 1.619663e+005
3.663448e+002, 1.618190e+005
3.663965e+002, 1.619850e+005
3.664483e+002, 1.623443e+005
3.665000e+002, 1.627070e+005
3.665517e+002, 1.625716e+005
3.666035e+002, 1.620504e+005
3.666552e+002, 1.617711e+005
3.667069e+002, 1.619874e+005
3.667586e+002, 1.617515e+005
3.668104e+002, 1.622782e+005
3.668621e+002, 1.620788e+005
3.669138e+002, 1.620502e+005
3.669655e+002, 1.618542e+005
3.670172e+002, 1.615700e+005
3.670690e+002, 1.615963e+005
3.671207e+002, 1.615682e+005
3.671724e+002, 1.614763e+005
3.672242e+002, 1.614023e+005
3.672759e+002, 1.616442e+005
3.673276e+002, 1.619446e+005
3.673793e+002, 1.616265e+005
3.674310e+002, 1.615555e+005
3.674828e+002, 1.616138e+005
3.675345e+002, 1.614224e+005
3.675862e+002, 1.613373e+005
3.676379e+002, 1.616402e+005
3.676897e+002, 1.617443e+005
3.677414e+002, 1.614013e+005
3.677931e+002, 1.613953e+005
3.678448e+002, 1.612787e+005
3.678965e+002, 1.609869e+005
3.679483e+002, 1.606570e+005
3.680000e+002, 1.607587e+005
3.680517e+002, 1.606870e+005
3.681035e+002, 1.602513e+005
3.681552e+002, 1.601676e+005
3.682069e+002, 1.604835e+005
3.682586e+002, 1.599258e+005
3.683104e+002, 1.594254e+005
3.683621e+002, 1.593430e+005
3.684138e+002, 1.595254e+005
3.684655e+002, 1.597963e+005
3.685172e+002, 1.597895e+005
3.685690e+002, 1.594689e+005
3.686207e+002, 1.590275e+005
3.686724e+002, 1.589967e+005
3.687242e+002, 1.585314e+005
3.687759e+002, 1.579766e+005
3.688276e+002, 1.586788e+005
3.688793e+002, 1.591537e+005
3.689310e+002, 1.591988e+005
3.689828e+002, 1.585778e+005
3.690345e+002, 1.586315e+005
3.690862e+002, 1.585401e+005
3.691379e+002, 1.588108e+005
3.691897e+002, 1.591338e+005
3.692414e+002, 1.588105e+005
3.692931e+002, 1.583938e+005
3.693448e+002, 1.580618e+005
3.693965e+002, 1.579064e+005
3.694483e+002, 1.579139e+005
3.695000e+002, 1.581727e+005
3.695517e+002, 1.583210e+005
3.696035e+002, 1.579176e+005
3.696552e+002, 1.576688e+005
3.697069e+002, 1.570622e+005
3.697586e+002, 1.572205e+005
3.698104e+002, 1.574067e+005
3.698621e+002, 1.573152e+005
3.699138e+002, 1.578627e+005
3.699655e+002, 1.579274e+005
3.700172e+002, 1.579049e+005
3.700690e+002, 1.579168e+005
3.701207e+002, 1.580096e+005
3.701724e+002, 1.579532e+005
3.702242e+002, 1.579862e+005
3.702759e+002, 1.575026e+005
3.703276e+002, 1.570436e+005
3.703793e+002, 1.571450e+005
3.704310e+002, 1.572028e+005
3.704828e+002, 1.569816e+005
3.705345e+002, 1.566654e+005
3.705862e+002, 1.564715e+005
3.706379e+002, 1.561795e+005
3.706897e+002, 1.560220e+005
3.707414e+002, 1.561769e+005
3.707931e+002, 1.559766e+005
3.708448e+002, 1.559999e+005
3.708965e+002, 1.565247e+005
3.709483e+002, 1.568326e+005
3.710000e+002, 1.565380e+005
3.710517e+002, 1.561561e+005
3.711035e+002, 1.559442e+005
3.711552e+002, 1.554703e+005
3.712069e+002, 1.556151e+005
3.712586e+002, 1.554809e+005
3.713104e+002, 1.558327e+005
3.713621e+002, 1.555746e+005
3.714138e+002, 1.550882e+005
3.714655e+002, 1.547597e+005
3.715172e+002, 1.551673e+005
3.715690e+002, 1.549408e+005
3.716207e+002, 1.549213e+005
3.716724e+002, 1.549528e+005
3.717242e+002, 1.551630e+005
3.717759e+002, 1.549737e+005
3.718276e+002, 1.548938e+005
3.718793e+002, 1.548084e+005
3.719310e+002, 1.546037e+005
3.719828e+002, 1.547257e+005
3.720345e+002, 1.545507e+005
3.720862e+002, 1.542678e+005
3.721379e+002, 1.544136e+005
3.721897e+002, 1.545937e+005
3.722414e+002, 1.543064e+005
3.722931e+002, 1.540711e+005
3.723448e+002, 1.542443e+005
3.723965e+002, 1.538512e+005
3.724483e+002, 1.542443e+005
3.725000e+002, 1.545825e+005
3.725517e+002, 1.543389e+005
3.726035e+002, 1.539078e+005
3.726552e+002, 1.535913e+005
3.727069e+002, 1.537429e+005
3.727586e+002, 1.536554e+005
3.728104e+002, 1.536981e+005
3.728621e+002, 1.536160e+005
3.729138e+002, 1.536939e+005
3.729655e+002, 1.535555e+005
3.730172e+002, 1.534064e+005
3.730690e+002, 1.532141e+005
3.731207e+002, 1.526311e+005
3.731724e+002, 1.526521e+005
3.732242e+002, 1.528618e+005
3.732759e+002, 1.528566e+005
3.733276e+002, 1.529497e+005
3.733793e+002, 1.531797e+005
3.734310e+002, 1.529420e+005
3.734828e+002, 1.530579e+005
3.735345e+002, 1.526354e+005
3.735862e+002, 1.524170e+005
3.736379e+002, 1.526545e+005
3.736897e+002, 1.523623e+005
3.737414e+002, 1.523417e+005
3.737931e+002, 1.527310e+005
3.738448e+002, 1.530059e+005
3.738965e+002, 1.523116e+005
3.739483e+002, 1.519400e+005
3.740000e+002, 1.520095e+005
3.740517e+002, 1.518269e+005
3.741035e+002, 1.517255e+005
3.741552e+002, 1.517418e+005
3.742069e+002, 1.521201e+005
3.742586e+002, 1.518623e+005
3.743104e+002, 1.515922e+005
3.743621e+002, 1.514649e+005
3.744138e+002, 1.515534e+005
3.744655e+002, 1.514080e+005
3.745172e+002, 1.509791e+005
3.745690e+002, 1.511222e+005
3.746207e+002, 1.509635e+005
3.746724e+002, 1.514386e+005
3.747242e+002, 1.517080e+005
3.747759e+002, 1.511458e+005
3.748276e+002, 1.510055e+005
3.748793e+002, 1.507275e+005
3.749310e+002, 1.499610e+005
3.749828e+002, 1.498135e+005
3.750345e+002, 1.501126e+005
3.750862e+002, 1.507075e+005
3.751379e+002, 1.507172e+005
3.751897e+002, 1.507659e+005
3.752414e+002, 1.506706e+005
3.752931e+002, 1.505983e+005
3.753448e+002, 1.504898e+005
3.753965e+002, 1.506903e+005
3.754483e+002, 1.505356e+005
3.755000e+002, 1.504041e+005
3.755517e+002, 1.497263e+005
3.756035e+002, 1.494269e+005
3.756552e+002, 1.494937e+005
3.757069e+002, 1.494436e+005
3.757586e+002, 1.495065e+005
3.758104e+002, 1.496961e+005
3.758621e+002, 1.498837e+005
3.759138e+002, 1.497321e+005
3.759655e+002, 1.494931e+005
3.760172e+002, 1.494409e+005
3.760690e+002, 1.494627e+005
3.761207e+002, 1.491953e+005
3.761724e+002, 1.491785e+005
3.762242e+002, 1.488691e+005
3.762759e+002, 1.488825e+005
3.763276e+002, 1.489635e+005
3.763793e+002, 1.489361e+005
3.764310e+002, 1.487628e+005
3.764828e+002, 1.484732e+005
3.765345e+002, 1.482463e+005
3.765862e+002, 1.483701e+005
3.766379e+002, 1.484274e+005
3.766897e+002, 1.482587e+005
3.767414e+002, 1.483731e+005
3.767931e+002, 1.485001e+005
3.768448e+002, 1.482398e+005
3.768965e+002, 1.478117e+005
3.769483e+002, 1.475131e+005
3.770000e+002, 1.476945e+005
3.770517e+002, 1.477451e+005
3.771035e+002, 1.474416e+005
3.771552e+002, 1.469465e+005
3.772069e+002, 1.471709e+005
3.772586e+002, 1.475924e+005
3.773104e+002, 1.477062e+005
3.773621e+002, 1.477692e+005
3.774138e+002, 1.478356e+005
3.774655e+002, 1.477914e+005
3.775173e+002, 1.475864e+005
3.775690e+002, 1.472928e+005
3.776207e+002, 1.472908e+005
3.776724e+002, 1.472954e+005
3.777242e+002, 1.465011e+005
3.777759e+002, 1.462506e+005
3.778276e+002, 1.461929e+005
3.778793e+002, 1.468159e+005
3.779310e+002, 1.460588e+005
3.779828e+002, 1.460888e+005
3.780345e+002, 1.461366e+005
3.780862e+002, 1.466474e+005
3.781379e+002, 1.466238e+005
3.781897e+002, 1.463960e+005
3.782414e+002, 1.459208e+005
3.782931e+002, 1.457481e+005
3.783448e+002, 1.457799e+005
3.783965e+002, 1.457124e+005
3.784483e+002, 1.456494e+005
3.785000e+002, 1.456261e+005
3.785517e+002, 1.454135e+005
3.786035e+002, 1.455204e+005
3.786552e+002, 1.454911e+005
3.787069e+002, 1.451628e+005
3.787586e+002, 1.452924e+005
3.788104e+002, 1.453760e+005
3.788621e+002, 1.452765e+005
3.789138e+002, 1.451920e+005
3.789655e+002, 1.448901e+005
3.790173e+002, 1.450984e+005
3.790690e+002, 1.454685e+005
3.791207e+002, 1.456760e+005
3.791724e+002, 1.447918e+005
3.792242e+002, 1.442437e+005
3.792759e+002, 1.446031e+005
3.793276e+002, 1.444777e+005
3.793793e+002, 1.440684e+005
3.794310e+002, 1.444721e+005
3.794828e+002, 1.447245e+005
3.795345e+002, 1.445372e+005
3.795862e+002, 1.444148e+005
3.796379e+002, 1.441182e+005
3.796897e+002, 1.439496e+005
3.797414e+002, 1.440530e+005
3.797931e+002, 1.439165e+005
3.798448e+002, 1.442372e+005
3.798965e+002, 1.441233e+005
3.799483e+002, 1.439456e+005
3.800000e+002, 1.440859e+005
3.800517e+002, 1.440595e+005
3.801035e+002, 1.440132e+005
3.801552e+002, 1.437158e+005
3.802069e+002, 1.434739e+005
3.802586e+002, 1.431778e+005
3.803104e+002, 1.432374e+005
3.803621e+002, 1.436609e+005
3.804138e+002, 1.437372e+005
3.804655e+002, 1.439671e+005
3.805173e+002, 1.439720e+005
3.805690e+002, 1.437322e+005
3.806207e+002, 1.435626e+005
3.806724e+002, 1.430692e+005
3.807242e+002, 1.426291e+005
3.807759e+002, 1.426722e+005
3.808276e+002, 1.429463e+005
3.808793e+002, 1.432381e+005
3.809310e+002, 1.435995e+005
3.809828e+002, 1.427763e+005
3.810345e+002, 1.426197e+005
3.810862e+002, 1.425536e+005
3.811379e+002, 1.428163e+005
3.811897e+002, 1.424109e+005
3.812414e+002, 1.421512e+005
3.812931e+002, 1.420011e+005
3.813448e+002, 1.423231e+005
3.813965e+002, 1.423650e+005
3.814483e+002, 1.423425e+005
3.815000e+002, 1.419567e+005
3.815517e+002, 1.419256e+005
3.816035e+002, 1.419594e+005
3.816552e+002, 1.417262e+005
3.817069e+002, 1.414439e+005
3.817586e+002, 1.414482e+005
3.818104e+002, 1.419400e+005
3.818621e+002, 1.419478e+005
3.819138e+002, 1.417666e+005
3.819655e+002, 1.414637e+005
3.820173e+002, 1.415258e+005
3.820690e+002, 1.413480e+005
3.821207e+002, 1.414042e+005
3.821724e+002, 1.411832e+005
3.822242e+002, 1.410623e+005
3.822759e+002, 1.409723e+005
3.823276e+002, 1.409413e+005
3.823793e+002, 1.412946e+005
3.824310e+002, 1.410019e+005
3.824828e+002, 1.406662e+005
3.825345e+002, 1.409830e+005
3.825862e+002, 1.408075e+005
3.826379e+002, 1.407038e+005
3.826897e+002, 1.406521e+005
3.827414e+002, 1.407990e+005
3.827931e+002, 1.404458e+005
3.828448e+002, 1.405815e+005
3.828965e+002, 1.406856e+005
3.829483e+002, 1.406018e+005
3.830000e+002, 1.402747e+005
3.830517e+002, 1.400714e+005
3.831035e+002, 1.402031e+005
3.831552e+002, 1.403252e+005
3.832069e+002, 1.402225e+005
3.832586e+002, 1.398561e+005
3.833104e+002, 1.401102e+005
3.833621e+002, 1.405976e+005
3.834138e+002, 1.405940e+005
3.834655e+002, 1.402893e+005
3.835173e+002, 1.400324e+005
3.835690e+002, 1.402989e+005
3.836207e+002, 1.403084e+005
3.836724e+002, 1.396750e+005
3.837242e+002, 1.399249e+005
3.837759e+002, 1.398751e+005
3.838276e+002, 1.397603e+005
3.838793e+002, 1.395553e+005
3.839310e+002, 1.393740e+005
3.839828e+002, 1.390467e+005
3.840345e+002, 1.391558e+005
3.840862e+002, 1.391314e+005
3.841379e+002, 1.388919e+005
3.841897e+002, 1.389020e+005
3.842414e+002, 1.387690e+005
3.842931e+002, 1.388540e+005
3.843448e+002, 1.387963e+005
3.843965e+002, 1.387539e+005
3.844483e+002, 1.391451e+005
3.845000e+002, 1.392043e+005
3.845517e+002, 1.390185e+005
3.846035e+002, 1.386888e+005
3.846552e+002, 1.384314e+005
3.847069e+002, 1.382610e+005
3.847586e+002, 1.381433e+005
3.848104e+002, 1.382696e+005
3.848621e+002, 1.380579e+005
3.849138e+002, 1.376595e+005
3.849655e+002, 1.377605e+005
3.850173e+002, 1.380411e+005
3.850690e+002, 1.379749e+005
3.851207e+002, 1.380491e+005
3.851724e+002, 1.381251e+005
3.852242e+002, 1.380221e+005
3.852759e+002, 1.378472e+005
3.853276e+002, 1.379144e+005
3.853793e+002, 1.376645e+005
3.854310e+002, 1.376401e+005
3.854828e+002, 1.377948e+005
3.855345e+002, 1.377078e+005
3.855862e+002, 1.376545e+005
3.856379e+002, 1.378252e+005
3.856897e+002, 1.371640e+005
3.857414e+002, 1.371368e+005
3.857931e+002, 1.376856e+005
3.858448e+002, 1.378556e+005
3.858965e+002, 1.377331e+005
3.859483e+002, 1.376414e+005
3.860000e+002, 1.372690e+005
3.860517e+002, 1.369745e+005
3.861035e+002, 1.366157e+005
3.861552e+002, 1.364967e+005
3.862069e+002, 1.364696e+005
3.862586e+002, 1.364015e+005
3.863104e+002, 1.362481e+005
3.863621e+002, 1.364484e+005
3.864138e+002, 1.367190e+005
3.864655e+002, 1.364034e+005
3.865173e+002, 1.364287e+005
3.865690e+002, 1.363149e+005
3.866207e+002, 1.364232e+005
3.866724e+002, 1.367756e+005
3.867242e+002, 1.365918e+005
3.867759e+002, 1.362079e+005
3.868276e+002, 1.357385e+005
3.868793e+002, 1.354652e+005
3.869310e+002, 1.356463e+005
3.869828e+002, 1.358977e+005
3.870345e+002, 1.365103e+005
3.870862e+002, 1.364563e+005
3.871379e+002, 1.360635e+005
3.871897e+002, 1.357417e+005
3.872414e+002, 1.355469e+005
3.872931e+002, 1.349908e+005
3.873448e+002, 1.347522e+005
3.873965e+002, 1.350811e+005
3.874483e+002, 1.353833e+005
3.875000e+002, 1.352864e+005
3.875517e+002, 1.353039e+005
3.876035e+002, 1.350865e+005
3.876552e+002, 1.355077e+005
3.877069e+002, 1.351850e+005
3.877586e+002, 1.349260e+005
3.878104e+002, 1.347459e+005
3.878621e+002, 1.351039e+005
3.879138e+002, 1.349510e+005
3.879655e+002, 1.345249e+005
3.880173e+002, 1.344929e+005
3.880690e+002, 1.352132e+005
3.881207e+002, 1.350016e+005
3.881724e+002, 1.349408e+005
3.882242e+002, 1.345513e+005
3.882759e+002, 1.344399e+005
3.883276e+002, 1.340881e+005
3.883793e+002, 1.342824e+005
3.884310e+002, 1.339071e+005
3.884828e+002, 1.342048e+005
3.885345e+002, 1.341214e+005
3.885862e+002, 1.342233e+005
3.886379e+002, 1.338927e+005
3.886897e+002, 1.342992e+005
3.887414e+002, 1.345195e+005
3.887931e+002, 1.342867e+005
3.888448e+002, 1.337950e+005
3.888965e+002, 1.338523e+005
3.889483e+002, 1.337933e+005
3.890000e+002, 1.333485e+005
3.890517e+002, 1.333927e+005
3.891035e+002, 1.334080e+005
3.891552e+002, 1.336163e+005
3.892069e+002, 1.338985e+005
3.892586e+002, 1.339191e+005
3.893104e+002, 1.336416e+005
3.893621e+002, 1.333060e+005
3.894138e+002, 1.329714e+005
3.894655e+002, 1.327015e+005
3.895173e+002, 1.328345e+005
3.895690e+002, 1.330068e+005
3.896207e+002, 1.328494e+005
3.896724e+002, 1.330081e+005
3.897242e+002, 1.330957e+005
3.897759e+002, 1.326700e+005
3.898276e+002, 1.322855e+005
3.898793e+002, 1.322894e+005
3.899310e+002, 1.326386e+005
3.899828e+002, 1.328641e+005
3.900345e+002, 1.322505e+005
3.900862e+002, 1.323345e+005
3.901379e+002, 1.327184e+005
3.901897e+002, 1.324085e+005
3.902414e+002, 1.318778e+005
3.902931e+002, 1.317411e+005
3.903448e+002, 1.318230e+005
3.903965e+002, 1.319500e+005
3.904483e+002, 1.318578e+005
3.905000e+002, 1.315605e+005
3.905517e+002, 1.314894e+005
3.906035e+002, 1.318805e+005
3.906552e+002, 1.317810e+005
3.907069e+002, 1.316471e+005
3.907586e+002, 1.319057e+005
3.908104e+002, 1.317241e+005
3.908621e+002, 1.319657e+005
3.909138e+002, 1.316967e+005
3.909655e+002, 1.313744e+005
3.910173e+002, 1.311538e+005
3.910690e+002, 1.312786e+005
3.911207e+002, 1.310532e+005
3.911724e+002, 1.313881e+005
3.912242e+002, 1.310033e+005
3.912759e+002, 1.309213e+005
3.913276e+002, 1.310744e+005
3.913793e+002, 1.312768e+005
3.914310e+002, 1.311361e+005
3.914828e+002, 1.310566e+005
3.915345e+002, 1.309252e+005
3.915862e+002, 1.308790e+005
3.916379e+002, 1.309758e+005
3.916897e+002, 1.310454e+005
3.917414e+002, 1.305925e+005
3.917931e+002, 1.305741e+005
3.918448e+002, 1.307327e+005
3.918965e+002, 1.307271e+005
3.919483e+002, 1.307844e+005
3.920000e+002, 1.307208e+005
3.920517e+002, 1.301614e+005
3.921035e+002, 1.301374e+005
3.921552e+002, 1.303214e+005
3.922069e+002, 1.300597e+005
3.922586e+002, 1.301806e+005
3.923104e+002, 1.301086e+005
3.923621e+002, 1.299485e+005
3.924138e+002, 1.297783e+005
3.924655e+002, 1.295855e+005
3.925173e+002, 1.294611e+005
3.925690e+002, 1.293827e+005
3.926207e+002, 1.292607e+005
3.926724e+002, 1.289775e+005
3.927242e+002, 1.292197e+005
3.927759e+002, 1.289780e+005
3.928276e+002, 1.289160e+005
3.928793e+002, 1.289995e+005
3.929310e+002, 1.291428e+005
3.929828e+002, 1.284796e+005
3.930345e+002, 1.286994e+005
3.930862e+002, 1.291239e+005
3.931379e+002, 1.289676e+005
3.931897e+002, 1.287061e+005
3.932414e+002, 1.288525e+005
3.932931e+002, 1.290353e+005
3.933448e+002, 1.289495e+005
3.933965e+002, 1.286406e+005
3.934483e+002, 1.287991e+005
3.935000e+002, 1.288034e+005
3.935517e+002, 1.283802e+005
3.936035e+002, 1.280698e+005
3.936552e+002, 1.283907e+005
3.937069e+002, 1.283818e+005
3.937586e+002, 1.283187e+005
3.938104e+002, 1.277375e+005
3.938621e+002, 1.277162e+005
3.939138e+002, 1.280229e+005
3.939655e+002, 1.280187e+005
3.940173e+002, 1.280783e+005
3.940690e+002, 1.282539e+005
3.941207e+002, 1.283297e+005
3.941724e+002, 1.279198e+005
3.942242e+002, 1.273811e+005
3.942759e+002, 1.271346e+005
3.943276e+002, 1.270083e+005
3.943793e+002, 1.270911e+005
3.944310e+002, 1.270933e+005
3.944828e+002, 1.272451e+005
3.945345e+002, 1.270673e+005
3.945862e+002, 1.273012e+005
3.946379e+002, 1.275762e+005
3.946897e+002, 1.273756e+005
3.947414e+002, 1.267832e+005
3.947931e+002, 1.266584e+005
3.948448e+002, 1.262260e+005
3.948965e+002, 1.260291e+005
3.949483e+002, 1.264634e+005
3.950000e+002, 1.267505e+005
3.950517e+002, 1.268241e+005
3.951035e+002, 1.265143e+005
3.951552e+002, 1.263129e+005
3.952069e+002, 1.266125e+005
3.952586e+002, 1.268024e+005
3.953104e+002, 1.266407e+005
3.953621e+002, 1.265818e+005
3.954138e+002, 1.265130e+005
3.954655e+002, 1.261661e+005
3.955173e+002, 1.259125e+005
3.955690e+002, 1.257918e+005
3.956207e+002, 1.258029e+005
3.956724e+002, 1.258042e+005
3.957242e+002, 1.257898e+005
3.957759e+002, 1.259957e+005
3.958276e+002, 1.261688e+005
3.958793e+002, 1.259975e+005
3.959310e+002, 1.257543e+005
3.959828e+002, 1.255433e+005
3.960345e+002, 1.258249e+005
3.960862e+002, 1.259752e+005
3.961379e+002, 1.257436e+005
3.961897e+002, 1.256856e+005
3.962414e+002, 1.256761e+005
3.962931e+002, 1.255881e+005
3.963448e+002, 1.257213e+005
3.963965e+002, 1.252786e+005
3.964483e+002, 1.250900e+005
3.965000e+002, 1.248275e+005
3.965517e+002, 1.250122e+005
3.966035e+002, 1.252686e+005
3.966552e+002, 1.258716e+005
3.967069e+002, 1.255185e+005
3.967586e+002, 1.251588e+005
3.968104e+002, 1.250864e+005
3.968621e+002, 1.247146e+005
3.969138e+002, 1.243274e+005
3.969655e+002, 1.245201e+005
3.970173e+002, 1.246531e+005
3.970690e+002, 1.245319e+005
3.971207e+002, 1.243775e+005
3.971724e+002, 1.243167e+005
3.972242e+002, 1.240780e+005
3.972759e+002, 1.241064e+005
3.973276e+002, 1.241007e+005
3.973793e+002, 1.237676e+005
3.974310e+002, 1.236704e+005
3.974828e+002, 1.238978e+005
3.975345e+002, 1.237139e+005
3.975862e+002, 1.235253e+005
3.976379e+002, 1.235423e+005
3.976897e+002, 1.238305e+005
3.977414e+002, 1.234407e+005
3.977931e+002, 1.234758e+005
3.978448e+002, 1.236202e+005
3.978965e+002, 1.238065e+005
3.979483e+002, 1.238398e+005
3.980000e+002, 1.239327e+005
3.980517e+002, 1.238585e+005
3.981035e+002, 1.238806e+005
3.981552e+002, 1.233879e+005
3.982069e+002, 1.229026e+005
3.982586e+002, 1.229519e+005
3.983104e+002, 1.230363e+005
3.983621e+002, 1.233050e+005
3.984138e+002, 1.233497e+005
3.984655e+002, 1.231512e+005
3.985173e+002, 1.233467e+005
3.985690e+002, 1.230293e+005
3.986207e+002, 1.227692e+005
3.986724e+002, 1.224036e+005
3.987242e+002, 1.223910e+005
3.987759e+002, 1.225821e+005
3.988276e+002, 1.228034e+005
3.988793e+002, 1.227633e+005
3.989310e+002, 1.227163e+005
3.989828e+002, 1.225252e+005
3.990345e+002, 1.225151e+005
3.990862e+002, 1.227946e+005
3.991379e+002, 1.228194e+005
3.991897e+002, 1.222663e+005
3.992414e+002, 1.218517e+005
3.992931e+002, 1.218565e+005
3.993448e+002, 1.218831e+005
3.993965e+002, 1.220974e+005
3.994483e+002, 1.222864e+005
3.995000e+002, 1.220253e+005
3.995517e+002, 1.222420e+005
3.996035e+002, 1.222952e+005
3.996552e+002, 1.222086e+005
3.997069e+002, 1.224041e+005
3.997586e+002, 1.223045e+005
3.998104e+002, 1.223362e+005
3.998621e+002, 1.224749e+005
3.999138e+002, 1.225924e+005
3.999655e+002, 1.225393e+005
4.000173e+002, 1.224396e+005
4.000690e+002, 1.221518e+005
4.001207e+002, 1.221330e+005
4.001724e+002, 1.220705e+005
4.002242e+002, 1.222128e+005
4.002759e+002, 1.223050e+005
4.003276e+002, 1.224578e+005
4.003793e+002, 1.225127e+005
4.004310e+002, 1.226607e+005
4.004828e+002, 1.221318e+005
4.005345e+002, 1.221671e+005
4.005862e+002, 1.220484e+005
4.006379e+002, 1.223076e+005
4.006897e+002, 1.223704e+005
4.007414e+002, 1.220614e+005
4.007931e+002, 1.220353e+005
4.008448e+002, 1.219292e+005
4.008965e+002, 1.214548e+005
4.009483e+002, 1.214114e+005
4.010000e+002, 1.215551e+005
4.010517e+002, 1.214199e+005
4.011035e+002, 1.219524e+005
4.011552e+002, 1.220111e+005
4.012069e+002, 1.218043e+005
4.012586e+002, 1.217216e+005
4.013104e+002, 1.215474e+005
4.013621e+002, 1.212068e+005
4.014138e+002, 1.210421e+005
4.014655e+002, 1.206671e+005
4.015173e+002, 1.208219e+005
4.015690e+002, 1.211716e+005
4.016207e+002, 1.213528e+005
4.016724e+002, 1.214698e+005
4.017242e+002, 1.215533e+005
4.017759e+002, 1.213757e+005
4.018276e+002, 1.208198e+005
4.018793e+002, 1.205943e+005
4.019310e+002, 1.204600e+005
4.019828e+002, 1.209748e+005
4.020345e+002, 1.211241e+005
4.020862e+002, 1.208866e+005
4.021379e+002, 1.201509e+005
4.021897e+002, 1.202851e+005
4.022414e+002, 1.204984e+005
4.022931e+002, 1.201460e+005
4.023448e+002, 1.198780e+005
4.023965e+002, 1.196998e+005
4.024483e+002, 1.199687e+005
4.025000e+002, 1.198809e+005
4.025517e+002, 1.198459e+005
4.026035e+002, 1.198973e+005
4.026552e+002, 1.198293e+005
4.027069e+002, 1.195134e+005
4.027586e+002, 1.195613e+005
4.028104e+002, 1.197177e+005
4.028621e+002, 1.196029e+005
4.029138e+002, 1.191166e+005
4.029655e+002, 1.191682e+005
4.030173e+002, 1.189985e+005
4.030690e+002, 1.186084e+005
4.031207e+002, 1.182306e+005
4.031724e+002, 1.180635e+005
4.032242e+002, 1.181904e+005
4.032759e+002, 1.181404e+005
4.033276e+002, 1.181443e+005
4.033793e+002, 1.177963e+005
4.034310e+002, 1.178363e+005
4.034828e+002, 1.180680e+005
4.035345e+002, 1.181802e+005
4.035862e+002, 1.181109e+005
4.036379e+002, 1.178021e+005
4.036897e+002, 1.176047e+005
4.037414e+002, 1.174772e+005
4.037931e+002, 1.176008e+005
4.038448e+002, 1.175841e+005
4.038965e+002, 1.175056e+005
4.039483e+002, 1.172512e+005
4.040000e+002, 1.174592e+005
4.040517e+002, 1.172717e+005
4.041035e+002, 1.174903e+005
4.041552e+002, 1.173634e+005
4.042069e+002, 1.170925e+005
4.042586e+002, 1.168434e+005
4.043104e+002, 1.170490e+005
4.043621e+002, 1.168977e+005
4.044138e+002, 1.166580e+005
4.044655e+002, 1.165780e+005
4.045173e+002, 1.167272e+005
4.045690e+002, 1.169019e+005
4.046207e+002, 1.163506e+005
4.046724e+002, 1.163974e+005
4.047242e+002, 1.166523e+005
4.047759e+002, 1.167036e+005
4.048276e+002, 1.166654e+005
4.048793e+002, 1.165176e+005
4.049310e+002, 1.165242e+005
4.049828e+002, 1.160775e+005
4.050345e+002, 1.161397e+005
4.050862e+002, 1.159206e+005
4.051379e+002, 1.161893e+005
4.051897e+002, 1.163540e+005
4.052414e+002, 1.165329e+005
4.052931e+002, 1.161754e+005
4.053448e+002, 1.159925e+005
4.053965e+002, 1.160766e+005
4.054483e+002, 1.161904e+005
4.055000e+002, 1.160889e+005
4.055517e+002, 1.156027e+005
4.056035e+002, 1.150326e+005
4.056552e+002, 1.150330e+005
4.057069e+002, 1.151726e+005
4.057586e+002, 1.150143e+005
4.058104e+002, 1.150422e+005
4.058621e+002, 1.151821e+005
4.059138e+002, 1.153155e+005
4.059655e+002, 1.156087e+005
4.060173e+002, 1.154625e+005
4.060690e+002, 1.154445e+005
4.061207e+002, 1.154706e+005
4.061724e+002, 1.156321e+005
4.062242e+002, 1.155235e+005
4.062759e+002, 1.153996e+005
4.063276e+002, 1.152333e+005
4.063793e+002, 1.150714e+005
4.064310e+002, 1.147815e+005
4.064828e+002, 1.147300e+005
4.065345e+002, 1.146618e+005
4.065862e+002, 1.150027e+005
4.066379e+002, 1.150871e+005
4.066897e+002, 1.149240e+005
4.067414e+002, 1.147534e+005
4.067931e+002, 1.147720e+005
4.068448e+002, 1.144375e+005
4.068965e+002, 1.142121e+005
4.069483e+002, 1.143364e+005
4.070000e+002, 1.147299e+005
4.070517e+002, 1.146568e+005
4.071035e+002, 1.142994e+005
4.071552e+002, 1.140956e+005
4.072069e+002, 1.138688e+005
4.072586e+002, 1.140089e+005
4.073104e+002, 1.139477e+005
4.073621e+002, 1.141938e+005
4.074138e+002, 1.140543e+005
4.074655e+002, 1.139881e+005
4.075173e+002, 1.137469e+005
4.075690e+002, 1.139689e+005
4.076207e+002, 1.145397e+005
4.076724e+002, 1.147556e+005
4.077242e+002, 1.146410e+005
4.077759e+002, 1.144292e+005
4.078276e+002, 1.142589e+005
4.078793e+002, 1.142139e+005
4.079310e+002, 1.143418e+005
4.079828e+002, 1.141948e+005
4.080345e+002, 1.140440e+005
4.080862e+002, 1.137505e+005
4.081379e+002, 1.139474e+005
4.081897e+002, 1.135529e+005
4.082414e+002, 1.136148e+005
4.082931e+002, 1.134822e+005
4.083448e+002, 1.134652e+005
4.083965e+002, 1.134500e+005
4.084483e+002, 1.135510e+005
4.085000e+002, 1.135882e+005
4.085517e+002, 1.136585e+005
4.086035e+002, 1.135702e+005
4.086552e+002, 1.131786e+005
4.087069e+002, 1.129472e+005
4.087586e+002, 1.131305e+005
4.088104e+002, 1.129386e+005
4.088621e+002, 1.132456e+005
4.089138e+002, 1.131508e+005
4.089655e+002, 1.129612e+005
4.090173e+002, 1.128555e+005
4.090690e+002, 1.124704e+005
4.091207e+002, 1.122775e+005
4.091724e+002, 1.125372e+005
4.092242e+002, 1.124796e+005
4.092759e+002, 1.127844e+005
4.093276e+002, 1.127924e+005
4.093793e+002, 1.125176e+005
4.094310e+002, 1.122738e+005
4.094828e+002, 1.125501e+005
4.095345e+002, 1.125610e+005
4.095862e+002, 1.124776e+005
4.096379e+002, 1.118429e+005
4.096897e+002, 1.119871e+005
4.097414e+002, 1.119259e+005
4.097931e+002, 1.120830e+005
4.098448e+002, 1.118158e+005
4.098965e+002, 1.123478e+005
4.099483e+002, 1.128386e+005
4.100000e+002, 1.131437e+005
4.100517e+002, 1.129893e+005
4.101035e+002, 1.126802e+005
4.101552e+002, 1.123145e+005
4.102069e+002, 1.119695e+005
4.102586e+002, 1.114930e+005
4.103104e+002, 1.113808e+005
4.103621e+002, 1.115963e+005
4.104138e+002, 1.118516e+005
4.104655e+002, 1.118869e+005
4.105173e+002, 1.115016e+005
4.105690e+002, 1.113652e+005
4.106207e+002, 1.114288e+005
4.106724e+002, 1.114495e+005
4.107242e+002, 1.114901e+005
4.107759e+002, 1.112537e+005
4.108276e+002, 1.108011e+005
4.108793e+002, 1.109609e+005
4.109310e+002, 1.110656e+005
4.109828e+002, 1.109579e+005
4.110345e+002, 1.108500e+005
4.110862e+002, 1.110550e+005
4.111379e+002, 1.108660e+005
4.111897e+002, 1.106093e+005
4.112414e+002, 1.107020e+005
4.112931e+002, 1.107218e+005
4.113448e+002, 1.108526e+005
4.113965e+002, 1.105150e+005
4.114483e+002, 1.105610e+005
4.115000e+002, 1.105376e+005
4.115517e+002, 1.101357e+005
4.116035e+002, 1.100851e+005
4.116552e+002, 1.101380e+005
4.117069e+002, 1.103053e+005
4.117586e+002, 1.101573e+005
4.118104e+002, 1.098976e+005
4.118621e+002, 1.103690e+005
4.119138e+002, 1.101218e+005
4.119655e+002, 1.102953e+005
4.120173e+002, 1.102472e+005
4.120690e+002, 1.099604e+005
4.121207e+002, 1.099598e+005
4.121724e+002, 1.098610e+005
4.122242e+002, 1.096482e+005
4.122759e+002, 1.096541e+005
4.123276e+002, 1.095739e+005
4.123793e+002, 1.093265e+005
4.124310e+002, 1.090440e+005
4.124828e+002, 1.091000e+005
4.125345e+002, 1.091898e+005
4.125862e+002, 1.090662e+005
4.126379e+002, 1.091576e+005
4.126897e+002, 1.088067e+005
4.127414e+002, 1.085578e+005
4.127931e+002, 1.084851e+005
4.128448e+002, 1.085407e+005
4.128965e+002, 1.085589e+005
4.129483e+002, 1.087755e+005
4.130000e+002, 1.088001e+005
4.130517e+002, 1.090089e+005
4.131035e+002, 1.087086e+005
4.131552e+002, 1.087004e+005
4.132069e+002, 1.086369e+005
4.132586e+002, 1.087403e+005
4.133104e+002, 1.086398e+005
4.133621e+002, 1.086168e+005
4.134138e+002, 1.086699e+005
4.134655e+002, 1.085855e+005
4.135173e+002, 1.086202e+005
4.135690e+002, 1.084815e+005
4.136207e+002, 1.080961e+005
4.136724e+002, 1.080725e+005
4.137242e+002, 1.076661e+005
4.137759e+002, 1.077371e+005
4.138276e+002, 1.081204e+005
4.138793e+002, 1.083127e+005
4.139310e+002, 1.082055e+005
4.139828e+002, 1.081816e+005
4.140345e+002, 1.078810e+005
4.140862e+002, 1.074565e+005
4.141379e+002, 1.073423e+005
4.141897e+002, 1.077223e+005
4.142414e+002, 1.076878e+005
4.142931e+002, 1.073061e+005
4.143448e+002, 1.071675e+005
4.143965e+002, 1.068094e+005
4.144483e+002, 1.067969e+005
4.145000e+002, 1.070307e+005
4.145517e+002, 1.071960e+005
4.146035e+002, 1.074508e+005
4.146552e+002, 1.078364e+005
4.147069e+002, 1.075094e+005
4.147586e+002, 1.073179e+005
4.148104e+002, 1.067731e+005
4.148621e+002, 1.065955e+005
4.149138e+002, 1.066398e+005
4.149655e+002, 1.066629e+005
4.150173e+002, 1.063886e+005
4.150690e+002, 1.062073e+005
4.151207e+002, 1.061747e+005
4.151724e+002, 1.059775e+005
4.152242e+002, 1.063728e+005
4.152759e+002, 1.066983e+005
4.153276e+002, 1.064352e+005
4.153793e+002, 1.067225e+005
4.154310e+002, 1.068017e+005
4.154828e+002, 1.066729e+005
4.155345e+002, 1.066308e+005
4.155862e+002, 1.065096e+005
4.156379e+002, 1.060495e+005
4.156897e+002, 1.059118e+005
4.157414e+002, 1.060419e+005
4.157931e+002, 1.058111e+005
4.158448e+002, 1.058040e+005
4.158965e+002, 1.056593e+005
4.159483e+002, 1.056764e+005
4.160000e+002, 1.057998e+005
4.160517e+002, 1.053765e+005
4.161035e+002, 1.051967e+005
4.161552e+002, 1.053974e+005
4.162069e+002, 1.059153e+005
4.162586e+002, 1.054278e+005
4.163104e+002, 1.051313e+005
4.163621e+002, 1.052047e+005
4.164138e+002, 1.050733e+005
4.164655e+002, 1.052070e+005
4.165173e+002, 1.053302e+005
4.165690e+002, 1.051592e+005
4.166207e+002, 1.049471e+005
4.166724e+002, 1.048538e+005
4.167242e+002, 1.046682e+005
4.167759e+002, 1.048260e+005
4.168276e+002, 1.054401e+005
4.168793e+002, 1.050978e+005
4.169310e+002, 1.050557e+005
4.169828e+002, 1.047319e+005
4.170345e+002, 1.042801e+005
4.170862e+002, 1.042589e+005
4.171379e+002, 1.041201e+005
4.171897e+002, 1.040544e+005
4.172414e+002, 1.040685e+005
4.172931e+002, 1.041279e+005
4.173448e+002, 1.039312e+005
4.173965e+002, 1.037639e+005
4.174483e+002, 1.035570e+005
4.175000e+002, 1.030844e+005
4.175517e+002, 1.029168e+005
4.176035e+002, 1.031418e+005
4.176552e+002, 1.038290e+005
4.177069e+002, 1.038678e+005
4.177586e+002, 1.042301e+005
4.178104e+002, 1.042675e+005
4.178621e+002, 1.041052e+005
4.179138e+002, 1.037710e+005
4.179655e+002, 1.034469e+005
4.180173e+002, 1.033769e+005
4.180690e+002, 1.034320e+005
4.181207e+002, 1.031382e+005
4.181724e+002, 1.032163e+005
4.182242e+002, 1.036148e+005
4.182759e+002, 1.033415e+005
4.183276e+002, 1.032097e+005
4.183793e+002, 1.033367e+005
4.184310e+002, 1.034597e+005
4.184828e+002, 1.037183e+005
4.185345e+002, 1.034167e+005
4.185862e+002, 1.029509e+005
4.186379e+002, 1.026447e+005
4.186897e+002, 1.027929e+005
4.187414e+002, 1.028382e+005
4.187931e+002, 1.024911e+005
4.188448e+002, 1.024226e+005
4.188965e+002, 1.024922e+005
4.189483e+002, 1.024437e+005
4.190000e+002, 1.023459e+005
4.190517e+002, 1.020689e+005
4.191035e+002, 1.022394e+005
4.191552e+002, 1.022187e+005
4.192069e+002, 1.021002e+005
4.192586e+002, 1.019496e+005
4.193104e+002, 1.022480e+005
4.193621e+002, 1.022928e+005
4.194138e+002, 1.025696e+005
4.194655e+002, 1.021671e+005
4.195173e+002, 1.017911e+005
4.195690e+002, 1.015814e+005
4.196207e+002, 1.015807e+005
4.196724e+002, 1.020298e+005
4.197242e+002, 1.021935e+005
4.197759e+002, 1.022931e+005
4.198276e+002, 1.022395e+005
4.198793e+002, 1.021334e+005
4.199310e+002, 1.019015e+005
4.199828e+002, 1.018984e+005
4.200345e+002, 1.016258e+005
4.200862e+002, 1.012649e+005
4.201379e+002, 1.006019e+005
4.201897e+002, 1.005656e+005
4.202414e+002, 1.007151e+005
4.202931e+002, 1.008126e+005
4.203448e+002, 1.009115e+005
4.203965e+002, 1.007652e+005
4.204483e+002, 1.009969e+005
4.205000e+002, 1.007239e+005
4.205517e+002, 1.007121e+005
4.206035e+002, 1.006273e+005
4.206552e+002, 1.007341e+005
4.207069e+002, 1.004400e+005
4.207586e+002, 1.004631e+005
4.208104e+002, 1.005288e+005
4.208621e+002, 1.009481e+005
4.209138e+002, 1.008304e+005
4.209655e+002, 1.005700e+005
4.210173e+002, 1.005419e+005
4.210690e+002, 1.005871e+005
4.211207e+002, 1.005714e+005
4.211724e+002, 1.002129e+005
4.212242e+002, 1.002561e+005
4.212759e+002, 1.000529e+005
4.213276e+002, 9.991968e+004
4.213793e+002, 9.950813e+004
4.214310e+002, 9.980579e+004
4.214828e+002, 9.997073e+004
4.215345e+002, 1.000593e+005
4.215862e+002, 9.995697e+004
4.216379e+002, 1.002481e+005
4.216897e+002, 1.001651e+005
4.217414e+002, 1.000304e+005
4.217931e+002, 9.994314e+004
4.218448e+002, 9.953106e+004
4.218965e+002, 9.961604e+004
4.219483e+002, 9.906477e+004
4.220000e+002, 9.898977e+004
4.220517e+002, 9.904699e+004
4.221035e+002, 9.891433e+004
4.221552e+002, 9.907754e+004
4.222069e+002, 9.934779e+004
4.222586e+002, 9.942670e+004
4.223104e+002, 9.900027e+004
4.223621e+002, 9.884132e+004
4.224138e+002, 9.867713e+004
4.224655e+002, 9.854189e+004
4.225173e+002, 9.861305e+004
4.225690e+002, 9.892542e+004
4.226207e+002, 9.869238e+004
4.226724e+002, 9.874573e+004
4.227242e+002, 9.899427e+004
4.227759e+002, 9.886945e+004
4.228276e+002, 9.870389e+004
4.228793e+002, 9.869478e+004
4.229310e+002, 9.841354e+004
4.229828e+002, 9.822981e+004
4.230345e+002, 9.843484e+004
4.230862e+002, 9.822573e+004
4.231379e+002, 9.843345e+004
4.231897e+002, 9.816889e+004
4.232414e+002, 9.804439e+004
4.232931e+002, 9.771056e+004
4.233448e+002, 9.756848e+004
4.233965e+002, 9.762287e+004
4.234483e+002, 9.742650e+004
4.235000e+002, 9.737345e+004
4.235517e+002, 9.741152e+004
4.236035e+002, 9.763608e+004
4.236552e+002, 9.755745e+004
4.237069e+002, 9.764712e+004
4.237586e+002, 9.786248e+004
4.238104e+002, 9.804927e+004
4.238621e+002, 9.779177e+004
4.239138e+002, 9.760321e+004
4.239655e+002, 9.777533e+004
4.240173e+002, 9.780101e+004
4.240690e+002, 9.755008e+004
4.241207e+002, 9.751013e+004
4.241724e+002, 9.751201e+004
4.242242e+002, 9.719486e+004
4.242759e+002, 9.735876e+004
4.243276e+002, 9.737463e+004
4.243793e+002, 9.704439e+004
4.244310e+002, 9.693653e+004
4.244828e+002, 9.689030e+004
4.245345e+002, 9.692223e+004
4.245862e+002, 9.681337e+004
4.246379e+002, 9.700419e+004
4.246897e+002, 9.672403e+004
4.247414e+002, 9.660135e+004
4.247931e+002, 9.706327e+004
4.248448e+002, 9.681474e+004
4.248965e+002, 9.645656e+004
4.249483e+002, 9.673622e+004
4.250000e+002, 9.663421e+004
4.250517e+002, 9.647574e+004
4.251035e+002, 9.636102e+004
4.251552e+002, 9.646888e+004
4.252069e+002, 9.639318e+004
4.252586e+002, 9.585325e+004
4.253104e+002, 9.594944e+004
4.253621e+002, 9.627139e+004
4.254138e+002, 9.645337e+004
4.254655e+002, 9.636418e+004
4.255173e+002, 9.634930e+004
4.255690e+002, 9.593447e+004
4.256207e+002, 9.611353e+004
4.256724e+002, 9.598663e+004
4.257242e+002, 9.595177e+004
4.257759e+002, 9.607563e+004
4.258276e+002, 9.595647e+004
4.258793e+002, 9.580148e+004
4.259310e+002, 9.570495e+004
4.259828e+002, 9.596980e+004
4.260345e+002, 9.567816e+004
4.260862e+002, 9.566491e+004
4.261379e+002, 9.551433e+004
4.261897e+002, 9.525220e+004
4.262414e+002, 9.541655e+004
4.262931e+002, 9.530520e+004
4.263448e+002, 9.502004e+004
4.263965e+002, 9.511030e+004
4.264483e+002, 9.546092e+004
4.265000e+002, 9.533766e+004
4.265517e+002, 9.517973e+004
4.266035e+002, 9.487920e+004
4.266552e+002, 9.465966e+004
4.267069e+002, 9.493959e+004
4.267586e+002, 9.479890e+004
4.268104e+002, 9.482435e+004
4.268621e+002, 9.538871e+004
4.269138e+002, 9.529575e+004
4.269655e+002, 9.478553e+004
4.270173e+002, 9.446758e+004
4.270690e+002, 9.458476e+004
4.271207e+002, 9.431039e+004
4.271724e+002, 9.402829e+004
4.272242e+002, 9.434802e+004
4.272759e+002, 9.435409e+004
4.273276e+002, 9.428952e+004
4.273793e+002, 9.416076e+004
4.274310e+002, 9.408409e+004
4.274828e+002, 9.421717e+004
4.275345e+002, 9.386338e+004
4.275862e+002, 9.354072e+004
4.276379e+002, 9.377048e+004
4.276897e+002, 9.363904e+004
4.277414e+002, 9.357037e+004
4.277931e+002, 9.373287e+004
4.278448e+002, 9.386146e+004
4.278965e+002, 9.421724e+004
4.279483e+002, 9.413132e+004
4.280000e+002, 9.387001e+004
4.280517e+002, 9.365173e+004
4.281035e+002, 9.363087e+004
4.281552e+002, 9.363766e+004
4.282069e+002, 9.364770e+004
4.282586e+002, 9.337245e+004
4.283104e+002, 9.338092e+004
4.283621e+002, 9.321752e+004
4.284138e+002, 9.333011e+004
4.284655e+002, 9.308247e+004
4.285173e+002, 9.286870e+004
4.285690e+002, 9.305765e+004
4.286207e+002, 9.325070e+004
4.286724e+002, 9.295690e+004
4.287242e+002, 9.305092e+004
4.287759e+002, 9.313112e+004
4.288276e+002, 9.321716e+004
4.288793e+002, 9.275347e+004
4.289310e+002, 9.260897e+004
4.289828e+002, 9.252346e+004
4.290345e+002, 9.268967e+004
4.290862e+002, 9.284943e+004
4.291379e+002, 9.300448e+004
4.291897e+002, 9.303841e+004
4.292414e+002, 9.285388e+004
4.292931e+002, 9.259311e+004
4.293448e+002, 9.274083e+004
4.293965e+002, 9.272106e+004
4.294483e+002, 9.235096e+004
4.295000e+002, 9.231682e+004
4.295517e+002, 9.240460e+004
4.296035e+002, 9.220289e+004
4.296552e+002, 9.216087e+004
4.297069e+002, 9.169888e+004
4.297586e+002, 9.177794e+004
4.298104e+002, 9.209598e+004
4.298621e+002, 9.215452e+004
4.299138e+002, 9.181135e+004
4.299655e+002, 9.210622e+004
4.300173e+002, 9.179072e+004
4.300690e+002, 9.175048e+004
4.301207e+002, 9.150650e+004
4.301724e+002, 9.139518e+004
4.302242e+002, 9.100892e+004
4.302759e+002, 9.112997e+004
4.303276e+002, 9.134888e+004
4.303793e+002, 9.160147e+004
4.304310e+002, 9.177740e+004
4.304828e+002, 9.165542e+004
4.305345e+002, 9.176267e+004
4.305862e+002, 9.131753e+004
4.306379e+002, 9.128858e+004
4.306897e+002, 9.118142e+004
4.307414e+002, 9.147491e+004
4.307931e+002, 9.158273e+004
4.308448e+002, 9.110638e+004
4.308965e+002, 9.095911e+004
4.309483e+002, 9.138124e+004
4.310000e+002, 9.131158e+004
4.310517e+002, 9.110833e+004
4.311035e+002, 9.117363e+004
4.311552e+002, 9.094711e+004
4.312069e+002, 9.083227e+004
4.312586e+002, 9.072379e+004
4.313104e+002, 9.087886e+004
4.313621e+002, 9.134472e+004
4.314138e+002, 9.127530e+004
4.314655e+002, 9.081398e+004
4.315173e+002, 9.080538e+004
4.315690e+002, 9.068059e+004
4.316207e+002, 9.071422e+004
4.316724e+002, 9.086064e+004
4.317242e+002, 9.026400e+004
4.317759e+002, 8.996568e+004
4.318276e+002, 9.007098e+004
4.318793e+002, 9.014091e+004
4.319310e+002, 9.032025e+004
4.319828e+002, 9.031044e+004
4.320345e+002, 9.024377e+004
4.320862e+002, 9.006450e+004
4.321379e+002, 8.997456e+004
4.321897e+002, 8.997164e+004
4.322414e+002, 8.990523e+004
4.322931e+002, 8.994136e+004
4.323448e+002, 9.013008e+004
4.323965e+002, 9.015387e+004
4.324483e+002, 9.049044e+004
4.325000e+002, 9.072766e+004
4.325517e+002, 9.036512e+004
4.326035e+002, 8.991536e+004
4.326552e+002, 8.989795e+004
4.327069e+002, 8.989397e+004
4.327586e+002, 8.992669e+004
4.328104e+002, 8.962544e+004
4.328621e+002, 8.968404e+004
4.329138e+002, 9.002013e+004
4.329655e+002, 8.958384e+004
4.330173e+002, 8.923833e+004
4.330690e+002, 8.907722e+004
4.331207e+002, 8.912219e+004
4.331724e+002, 8.928041e+004
4.332242e+002, 8.959748e+004
4.332759e+002, 8.966678e+004
4.333276e+002, 8.976261e+004
4.333793e+002, 8.966788e+004
4.334310e+002, 8.958162e+004
4.334828e+002, 8.921162e+004
4.335345e+002, 8.937463e+004
4.335862e+002, 8.932338e+004
4.336379e+002, 8.889113e+004
4.336897e+002, 8.861030e+004
4.337414e+002, 8.890134e+004
4.337931e+002, 8.899720e+004
4.338448e+002, 8.915238e+004
4.338965e+002, 8.925573e+004
4.339483e+002, 8.916096e+004
4.340000e+002, 8.904291e+004
4.340517e+002, 8.916415e+004
4.341035e+002, 8.940856e+004
4.341552e+002, 8.941171e+004
4.342069e+002, 8.897938e+004
4.342586e+002, 8.861769e+004
4.343104e+002, 8.875283e+004
4.343621e+002, 8.872176e+004
4.344138e+002, 8.858586e+004
4.344655e+002, 8.839555e+004
4.345173e+002, 8.843789e+004
4.345690e+002, 8.829914e+004
4.346207e+002, 8.831880e+004
4.346724e+002, 8.811008e+004
4.347242e+002, 8.818234e+004
4.347759e+002, 8.842749e+004
4.348276e+002, 8.871895e+004
4.348793e+002, 8.859372e+004
4.349310e+002, 8.831051e+004
4.349828e+002, 8.816573e+004
4.350345e+002, 8.818212e+004
4.350862e+002, 8.790615e+004
4.351379e+002, 8.804863e+004
4.351897e+002, 8.854522e+004
4.352414e+002, 8.874827e+004
4.352931e+002, 8.836513e+004
4.353448e+002, 8.780791e+004
4.353965e+002, 8.762380e+004
4.354483e+002, 8.788041e+004
4.355000e+002, 8.772964e+004
4.355517e+002, 8.766745e+004
4.356035e+002, 8.757770e+004
4.356552e+002, 8.751848e+004
4.357069e+002, 8.763685e+004
4.357586e+002, 8.737749e+004
4.358104e+002, 8.726657e+004
4.358621e+002, 8.754659e+004
4.359138e+002, 8.712801e+004
4.359655e+002, 8.714004e+004
4.360173e+002, 8.699002e+004
4.360690e+002, 8.726084e+004
4.361207e+002, 8.741863e+004
4.361724e+002, 8.751545e+004
4.362242e+002, 8.757555e+004
4.362759e+002, 8.775588e+004
4.363276e+002, 8.760309e+004
4.363793e+002, 8.709350e+004
4.364310e+002, 8.688509e+004
4.364828e+002, 8.714104e+004
4.365345e+002, 8.723560e+004
4.365862e+002, 8.719420e+004
4.366379e+002, 8.697470e+004
4.366897e+002, 8.675432e+004
4.367414e+002, 8.659172e+004
4.367931e+002, 8.657323e+004
4.368448e+002, 8.656280e+004
4.368965e+002, 8.659764e+004
4.369483e+002, 8.677665e+004
4.370000e+002, 8.688784e+004
4.370517e+002, 8.634590e+004
4.371035e+002, 8.626419e+004
4.371552e+002, 8.620413e+004
4.372069e+002, 8.611863e+004
4.372586e+002, 8.612716e+004
4.373104e+002, 8.603891e+004
4.373621e+002, 8.596486e+004
4.374138e+002, 8.598458e+004
4.374655e+002, 8.609616e+004
4.375173e+002, 8.597423e+004
4.375690e+002, 8.630781e+004
4.376207e+002, 8.604955e+004
4.376724e+002, 8.611592e+004
4.377242e+002, 8.617013e+004
4.377759e+002, 8.625451e+004
4.378276e+002, 8.616724e+004
4.378793e+002, 8.594341e+004
4.379310e+002, 8.624538e+004
4.379828e+002, 8.603788e+004
4.380345e+002, 8.582469e+004
4.380862e+002, 8.589906e+004
4.381379e+002, 8.567287e+004
4.381897e+002, 8.587341e+004
4.382414e+002, 8.590380e+004
4.382931e+002, 8.599832e+004
4.383448e+002, 8.596199e+004
4.383965e+002, 8.597734e+004
4.384483e+002, 8.586462e+004
4.385000e+002, 8.568268e+004
4.385517e+002, 8.579873e+004
4.386035e+002, 8.568696e+004
4.386552e+002, 8.534893e+004
4.387069e+002, 8.513501e+004
4.387586e+002, 8.512911e+004
4.388104e+002, 8.537888e+004
4.388621e+002, 8.548716e+004
4.389138e+002, 8.529874e+004
4.389655e+002, 8.563680e+004
4.390173e+002, 8.602667e+004
4.390690e+002, 8.573350e+004
4.391207e+002, 8.537331e+004
4.391724e+002, 8.514039e+004
4.392242e+002, 8.493411e+004
4.392759e+002, 8.483077e+004
4.393276e+002, 8.512577e+004
4.393793e+002, 8.515093e+004
4.394310e+002, 8.530725e+004
4.394828e+002, 8.522827e+004
4.395345e+002, 8.504807e+004
4.395862e+002, 8.480799e+004
4.396379e+002, 8.499545e+004
4.396897e+002, 8.496966e+004
4.397414e+002, 8.467459e+004
4.397931e+002, 8.464816e+004
4.398448e+002, 8.427460e+004
4.398965e+002, 8.425135e+004
4.399483e+002, 8.456813e+004
4.400000e+002, 8.479787e+004
4.400517e+002, 8.491448e+004
4.401035e+002, 8.500095e+004
4.401552e+002, 8.479059e+004
4.402069e+002, 8.488926e+004
4.402586e+002, 8.501320e+004
4.403104e+002, 8.498968e+004
4.403621e+002, 8.489787e+004
4.404138e+002, 8.504695e+004
4.404655e+002, 8.472352e+004
4.405173e+002, 8.454115e+004
4.405690e+002, 8.424789e+004
4.406207e+002, 8.434571e+004
4.406724e+002, 8.419784e+004
4.407242e+002, 8.413503e+004
4.407759e+002, 8.418427e+004
4.408276e+002, 8.395455e+004
4.408793e+002, 8.405262e+004
4.409310e+002, 8.411821e+004
4.409828e+002, 8.386614e+004
4.410345e+002, 8.399905e+004
4.410862e+002, 8.412493e+004
4.411379e+002, 8.413062e+004
4.411897e+002, 8.398888e+004
4.412414e+002, 8.373384e+004
4.412931e+002, 8.399006e+004
4.413448e+002, 8.411825e+004
4.413965e+002, 8.393957e+004
4.414483e+002, 8.395800e+004
4.415000e+002, 8.412513e+004
4.415517e+002, 8.389579e+004
4.416035e+002, 8.369802e+004
4.416552e+002, 8.359491e+004
4.417069e+002, 8.368959e+004
4.417586e+002, 8.352012e+004
4.418104e+002, 8.368473e+004
4.418621e+002, 8.381807e+004
4.419138e+002, 8.345509e+004
4.419655e+002, 8.334737e+004
4.420173e+002, 8.329356e+004
4.420690e+002, 8.362119e+004
4.421207e+002, 8.356375e+004
4.421724e+002, 8.336099e+004
4.422242e+002, 8.343554e+004
4.422759e+002, 8.317332e+004
4.423276e+002, 8.299817e+004
4.423793e+002, 8.295827e+004
4.424310e+002, 8.296863e+004
4.424828e+002, 8.307031e+004
4.425345e+002, 8.327314e+004
4.425862e+002, 8.286296e+004
4.426379e+002, 8.278050e+004
4.426897e+002, 8.276031e+004
4.427414e+002, 8.258888e+004
4.427931e+002, 8.238912e+004
4.428448e+002, 8.240372e+004
4.428965e+002, 8.244646e+004
4.429483e+002, 8.220155e+004
4.430000e+002, 8.199840e+004
4.430518e+002, 8.230266e+004
4.431035e+002, 8.250370e+004
4.431552e+002, 8.260454e+004
4.432069e+002, 8.254174e+004
4.432586e+002, 8.240913e+004
4.433104e+002, 8.243233e+004
4.433621e+002, 8.235502e+004
4.434138e+002, 8.228984e+004
4.434655e+002, 8.209432e+004
4.435173e+002, 8.208189e+004
4.435690e+002, 8.221409e+004
4.436207e+002, 8.241416e+004
4.436724e+002, 8.266970e+004
4.437242e+002, 8.252305e+004
4.437759e+002, 8.234334e+004
4.438276e+002, 8.211915e+004
4.438793e+002, 8.209963e+004
4.439310e+002, 8.236328e+004
4.439828e+002, 8.268263e+004
4.440345e+002, 8.256398e+004
4.440862e+002, 8.245835e+004
4.441379e+002, 8.207453e+004
4.441897e+002, 8.189127e+004
4.442414e+002, 8.218148e+004
4.442931e+002, 8.226964e+004
4.443448e+002, 8.197071e+004
4.443965e+002, 8.197985e+004
4.444483e+002, 8.190185e+004
4.445000e+002, 8.186182e+004
4.445518e+002, 8.177183e+004
4.446035e+002, 8.164600e+004
4.446552e+002, 8.122930e+004
4.447069e+002, 8.117488e+004
4.447586e+002, 8.123664e+004
4.448104e+002, 8.108757e+004
4.448621e+002, 8.127514e+004
4.449138e+002, 8.122191e+004
4.449655e+002, 8.103462e+004
4.450173e+002, 8.158248e+004
4.450690e+002, 8.166354e+004
4.451207e+002, 8.164080e+004
4.451724e+002, 8.160952e+004
4.452242e+002, 8.158174e+004
4.452759e+002, 8.161533e+004
4.453276e+002, 8.147733e+004
4.453793e+002, 8.132376e+004
4.454310e+002, 8.107073e+004
4.454828e+002, 8.096403e+004
4.455345e+002, 8.087921e+004
4.455862e+002, 8.092536e+004
4.456379e+002, 8.086793e+004
4.456897e+002, 8.084829e+004
4.457414e+002, 8.112051e+004
4.457931e+002, 8.103297e+004
4.458448e+002, 8.115360e+004
4.458965e+002, 8.123924e+004
4.459483e+002, 8.098737e+004
4.460000e+002, 8.087804e+004
4.460518e+002, 8.097209e+004
4.461035e+002, 8.097730e+004
4.461552e+002, 8.071156e+004
4.462069e+002, 8.089487e+004
4.462586e+002, 8.105821e+004
4.463104e+002, 8.090923e+004
4.463621e+002, 8.035490e+004
4.464138e+002, 8.001219e+004
4.464655e+002, 7.989173e+004
4.465173e+002, 7.986612e+004
4.465690e+002, 8.017441e+004
4.466207e+002, 8.030818e+004
4.466724e+002, 8.033529e+004
4.467242e+002, 8.030223e+004
4.467759e+002, 7.994226e+004
4.468276e+002, 7.987480e+004
4.468793e+002, 8.014819e+004
4.469310e+002, 7.993285e+004
4.469828e+002, 7.993456e+004
4.470345e+002, 8.046873e+004
4.470862e+002, 8.063152e+004
4.471379e+002, 8.041751e+004
4.471897e+002, 8.022763e+004
4.472414e+002, 8.002720e+004
4.472931e+002, 7.991044e+004
4.473448e+002, 7.995301e+004
4.473965e+002, 8.002273e+004
4.474483e+002, 7.997012e+004
4.475000e+002, 7.990463e+004
4.475518e+002, 7.987962e+004
4.476035e+002, 7.963506e+004
4.476552e+002, 7.950743e+004
4.477069e+002, 7.992270e+004
4.477586e+002, 8.010863e+004
4.478104e+002, 8.012452e+004
4.478621e+002, 8.042352e+004
4.479138e+002, 7.994600e+004
4.479655e+002, 7.974648e+004
4.480173e+002, 7.970048e+004
4.480690e+002, 7.983798e+004
4.481207e+002, 7.965197e+004
4.481724e+002, 7.941672e+004
4.482242e+002, 7.957879e+004
4.482759e+002, 7.979738e+004
4.483276e+002, 7.981722e+004
4.483793e+002, 7.974487e+004
4.484310e+002, 8.008618e+004
4.484828e+002, 7.962294e+004
4.485345e+002, 7.954757e+004
4.485862e+002, 7.934380e+004
4.486379e+002, 7.962775e+004
4.486897e+002, 7.929296e+004
4.487414e+002, 7.918689e+004
4.487931e+002, 7.916894e+004
4.488448e+002, 7.911234e+004
4.488965e+002, 7.903125e+004
4.489483e+002, 7.912315e+004
4.490000e+002, 7.882400e+004
4.490518e+002, 7.884313e+004
4.491035e+002, 7.911409e+004
4.491552e+002, 7.920879e+004
4.492069e+002, 7.882805e+004
4.492586e+002, 7.909810e+004
4.493104e+002, 7.886880e+004
4.493621e+002, 7.867616e+004
4.494138e+002, 7.872235e+004
4.494655e+002, 7.874666e+004
4.495173e+002, 7.874666e+004
4.495690e+002, 7.874666e+004
4.496207e+002, 7.874666e+004
4.496724e+002, 7.874666e+004
4.497242e+002, 7.874666e+004
4.497759e+002, 7.874666e+004
4.498276e+002, 7.874666e+004
4.498793e+002, 7.874666e+004
#ENDOFDATA   : End Of Data and File